BAND               Energy(ev)               Occupation                Kpoint = 1                        (0 0 0)
     1                 -93.8976                 0.499996
     2                  -55.383                  0.49959
     3                 -55.3808                  0.49959
     4                 -55.3808                  0.49959
     5                -0.991223                 0.304326
     6                  17.3945                0.0702847
     7                  17.4011                0.0702361
     8                  18.8367                0.0602751
     9                  18.8367                0.0602751
    10                  18.8375                0.0602701
    11                  25.4348                0.0287846
    12                  34.5824               0.00976533
    13                  34.5892               0.00975739
    14                  34.5892               0.00975739
    15                  39.9268               0.00512228
    16                  39.9327               0.00511859
    17                  40.2544               0.00492273
    18                  40.2588               0.00492011
    19                  40.2588               0.00492011
    20                  41.6293               0.00416608
    21                  41.6298               0.00416581
    22                  41.6298               0.00416581
    23                  52.5674               0.00109773
    24                  58.6028              0.000524702
    25                  58.6028              0.000524702
    26                  58.6126              0.000524073
    27                  59.3253              0.000480298
    28                  63.0724              0.000303614
    29                   63.077              0.000303441
    30                   63.077              0.000303441
    31                   68.675              0.000152895
    32                  71.4768              0.000108487
    33                  71.4812              0.000108428
    34                  83.1565              2.59469e-05
    35                  83.1565              2.59469e-05
    36                  83.1565              2.59469e-05
    37                  89.8402              1.14426e-05
    38                  92.5016               8.2593e-06
    39                  92.5091              8.25173e-06
    40                  92.5091              8.25173e-06
    41                  96.5522              5.02868e-06
    42                  96.5587              5.02466e-06
    43                  99.2434              3.61646e-06
    44                  99.2434              3.61646e-06
    45                  99.2451              3.61567e-06
    46                  101.765              2.65541e-06
    47                  101.768              2.65456e-06
    48                  101.768              2.65456e-06
    49                  103.049              2.26895e-06
    50                  103.054              2.26743e-06
    51                  103.054              2.26743e-06
    52                  104.562              1.88515e-06
    53                  104.564              1.88467e-06
    54                  105.394              1.70241e-06
    55                  105.394              1.70237e-06
    56                  105.394              1.70237e-06
    57                  106.098              1.56186e-06
    58                   111.19              8.36976e-07
    59                  111.193              8.36673e-07
    60                  111.193              8.36673e-07
    61                   118.15              3.56843e-07
    62                   118.15              3.56843e-07
    63                  118.159              3.56421e-07
    64                  118.541              3.40155e-07
    65                  118.787              3.30054e-07
    66                  124.986              1.54441e-07
    67                  124.987              1.54428e-07
    68                  125.144              1.51491e-07
    69                  125.146              1.51445e-07
    70                  125.146              1.51445e-07
    71                  125.486              1.45273e-07
    72                  125.493              1.45147e-07
    73                  125.493              1.45147e-07
    74                  125.503              1.44963e-07
    75                  125.503              1.44963e-07
    76                  125.508              1.44878e-07
    77                  125.635              1.42646e-07
    78                  125.638              1.42589e-07
    79                  125.871              1.38577e-07
    80                  125.871              1.38577e-07
    81                  125.876              1.38486e-07
    82                   135.77              4.12182e-08
    83                   135.77              4.12182e-08
    84                  135.772               4.1208e-08
    85                  155.442              3.70281e-09
    86                  160.027              2.11163e-09
    87                  160.034              2.10966e-09
    88                  160.034              2.10966e-09
    89                  161.465              1.77038e-09
    90                  161.473               1.7687e-09
    91                    163.3              1.41413e-09
    92                    163.3              1.41413e-09
    93                  163.305              1.41313e-09
    94                  171.445              5.21404e-10
    95                  171.446              5.21292e-10
    96                  171.446              5.21292e-10
    97                   175.53              3.16097e-10
    98                  175.537              3.15831e-10
    99                  177.035              2.62901e-10
   100                  180.508              1.71792e-10


BAND               Energy(ev)               Occupation                Kpoint = 2                        (0.5 0 0)
     1                 -93.8977                 0.499996
     2                 -55.4107                 0.499591
     3                 -55.3807                  0.49959
     4                 -55.3785                 0.499589
     5                  3.74661                 0.232687
     6                  4.62137                 0.219419
     7                   20.188                 0.052037
     8                  22.7532                0.0391024
     9                  22.7534                0.0391016
    10                  23.9497                0.0341354
    11                  23.9538                0.0341196
    12                  26.1516                0.0264931
    13                  26.7827                0.0246189
    14                  30.0463                0.0167784
    15                  36.4639                0.0077865
    16                  39.9415                0.0051131
    17                  44.9866               0.00276912
    18                  44.9927               0.00276706
    19                  45.5621                0.0025816
    20                  45.9082               0.00247495
    21                  45.9115               0.00247395
    22                  46.8278               0.00221246
    23                  48.9792               0.00170162
    24                  54.6095              0.000855206
    25                   60.909               0.00039567
    26                  60.9113              0.000395562
    27                  65.3118              0.000230806
    28                  65.7319              0.000219235
    29                  65.7342              0.000219173
    30                  66.9109              0.000189763
    31                  68.5418               0.00015541
    32                  70.7098              0.000119172
    33                  73.8533              8.10906e-05
    34                  83.1653               2.5919e-05
    35                  83.7385              2.41616e-05
    36                  83.7451              2.41421e-05
    37                  84.7069              2.14589e-05
    38                  84.7098              2.14513e-05
    39                   85.688              1.90291e-05
    40                  85.7294              1.89328e-05
    41                  88.8869                1.286e-05
    42                  89.4328              1.20282e-05
    43                   89.435              1.20249e-05
    44                  89.6925              1.16515e-05
    45                   91.344              9.51753e-06
    46                  91.3496              9.51098e-06
    47                  92.7617              8.00025e-06
    48                  95.6653              5.60579e-06
    49                  98.2382              4.09033e-06
    50                  104.901              1.80843e-06
    51                  104.906              1.80731e-06
    52                  105.009              1.78469e-06
    53                   105.92              1.59624e-06
    54                  109.122              1.07826e-06
    55                  109.124              1.07801e-06
    56                    110.1              9.56514e-07
    57                  110.972              8.59654e-07
    58                  111.909              7.66469e-07
    59                  112.123              7.46593e-07
    60                  112.124              7.46468e-07
    61                  112.298              7.30801e-07
    62                  113.064              6.65315e-07
    63                  113.487              6.31747e-07
    64                  113.489              6.31536e-07
    65                  123.617              1.82642e-07
    66                  123.623              1.82515e-07
    67                  125.683              1.41809e-07
    68                  126.372              1.30328e-07
    69                  126.517              1.28041e-07
    70                   126.57              1.27209e-07
    71                  134.003              5.11737e-08
    72                  134.005               5.1166e-08
    73                   136.64              3.70517e-08
    74                  141.917              1.94103e-08
    75                   143.48              1.60293e-08
    76                  143.484              1.60212e-08
    77                   143.68              1.56403e-08
    78                  146.469              1.11147e-08
    79                  146.897              1.05461e-08
    80                   148.88               8.2717e-09
    81                  148.896              8.25583e-09
    82                    148.9              8.25197e-09
    83                  150.123              7.10359e-09
    84                  150.125              7.10208e-09
    85                  150.877              6.47677e-09
    86                  151.587              5.93784e-09
    87                  151.642              5.89738e-09
    88                  151.645              5.89548e-09
    89                  152.356              5.40354e-09
    90                   152.47              5.32881e-09
    91                  152.488              5.31715e-09
    92                  152.492              5.31444e-09
    93                  153.447              4.72773e-09
    94                  153.569              4.65778e-09
    95                  156.893              3.09958e-09
    96                  156.894               3.0993e-09
    97                   162.78              1.50703e-09
    98                  163.619              1.35993e-09
    99                   166.16              9.96168e-10
   100                  170.548              5.81957e-10


BAND               Energy(ev)               Occupation                Kpoint = 3                        (0 0.5 0)
     1                 -93.8977                 0.499996
     2                 -55.4107                 0.499591
     3                 -55.3807                  0.49959
     4                 -55.3785                 0.499589
     5                  3.74661                 0.232687
     6                  4.62137                 0.219419
     7                   20.188                 0.052037
     8                  22.7532                0.0391024
     9                  22.7534                0.0391016
    10                  23.9497                0.0341354
    11                  23.9538                0.0341196
    12                  26.1516                0.0264931
    13                  26.7827                0.0246189
    14                  30.0463                0.0167784
    15                  36.4639                0.0077865
    16                  39.9415                0.0051131
    17                  44.9866               0.00276912
    18                  44.9927               0.00276706
    19                  45.5621                0.0025816
    20                  45.9082               0.00247495
    21                  45.9115               0.00247395
    22                  46.8278               0.00221246
    23                  48.9792               0.00170162
    24                  54.6095              0.000855206
    25                   60.909               0.00039567
    26                  60.9113              0.000395562
    27                  65.3118              0.000230806
    28                  65.7319              0.000219235
    29                  65.7342              0.000219173
    30                  66.9109              0.000189763
    31                  68.5418               0.00015541
    32                  70.7098              0.000119172
    33                  73.8533              8.10906e-05
    34                  83.1653               2.5919e-05
    35                  83.7385              2.41616e-05
    36                  83.7451              2.41421e-05
    37                  84.7069              2.14589e-05
    38                  84.7098              2.14513e-05
    39                   85.688              1.90291e-05
    40                  85.7294              1.89328e-05
    41                  88.8869                1.286e-05
    42                  89.4328              1.20282e-05
    43                   89.435              1.20249e-05
    44                  89.6925              1.16515e-05
    45                   91.344              9.51753e-06
    46                  91.3496              9.51098e-06
    47                  92.7617              8.00025e-06
    48                  95.6653              5.60579e-06
    49                  98.2382              4.09032e-06
    50                  104.901              1.80843e-06
    51                  104.906              1.80731e-06
    52                  105.009              1.78469e-06
    53                   105.92              1.59624e-06
    54                  109.122              1.07826e-06
    55                  109.124              1.07801e-06
    56                    110.1              9.56514e-07
    57                  110.972              8.59654e-07
    58                  111.909              7.66469e-07
    59                  112.123              7.46593e-07
    60                  112.124              7.46468e-07
    61                  112.298              7.30801e-07
    62                  113.064              6.65315e-07
    63                  113.487              6.31747e-07
    64                  113.489              6.31536e-07
    65                  123.617              1.82642e-07
    66                  123.623              1.82515e-07
    67                  125.683              1.41809e-07
    68                  126.372              1.30328e-07
    69                  126.517              1.28041e-07
    70                   126.57              1.27209e-07
    71                  134.003              5.11737e-08
    72                  134.005               5.1166e-08
    73                   136.64              3.70517e-08
    74                  141.917              1.94103e-08
    75                   143.48              1.60293e-08
    76                  143.484              1.60212e-08
    77                   143.68              1.56403e-08
    78                  146.469              1.11147e-08
    79                  146.897              1.05461e-08
    80                   148.88               8.2717e-09
    81                  148.896              8.25583e-09
    82                    148.9              8.25197e-09
    83                  150.123              7.10359e-09
    84                  150.125              7.10208e-09
    85                  150.877              6.47677e-09
    86                  151.587              5.93784e-09
    87                  151.642              5.89738e-09
    88                  151.645              5.89548e-09
    89                  152.356              5.40354e-09
    90                   152.47              5.32881e-09
    91                  152.488              5.31715e-09
    92                  152.492              5.31444e-09
    93                  153.447              4.72773e-09
    94                  153.569              4.65778e-09
    95                  156.893              3.09958e-09
    96                  156.894              3.09929e-09
    97                   162.78              1.50703e-09
    98                  163.619              1.35993e-09
    99                   166.16              9.96168e-10
   100                  170.548               5.8196e-10


BAND               Energy(ev)               Occupation                Kpoint = 4                        (0.5 0.5 0)
     1                 -93.9007                 0.499996
     2                 -55.4078                 0.499591
     3                 -55.4078                 0.499591
     4                 -55.3784                 0.499589
     5                  8.48414                   0.1638
     6                  8.48414                   0.1638
     7                  9.13764                 0.155107
     8                  11.0705                 0.130972
     9                  26.7966                0.0245793
    10                  26.8066                0.0245507
    11                  26.8066                0.0245507
    12                  29.8682                0.0171359
    13                  30.4411                0.0160117
    14                  30.4411                0.0160117
    15                  32.6814                0.0122632
    16                  33.1173                0.0116404
    17                  40.9329               0.00453367
    18                  47.7388               0.00197975
    19                  50.0839                0.0014869
    20                  50.0839                0.0014869
    21                  52.6782               0.00108296
    22                  52.6782               0.00108296
    23                  53.2406               0.00101101
    24                  55.5786              0.000759617
    25                  61.2176              0.000381003
    26                  61.2176              0.000381003
    27                  67.0309              0.000186996
    28                  67.2881              0.000181197
    29                  70.0611              0.000129025
    30                  70.2838              0.000125554
    31                  71.9685              0.000102147
    32                  72.9296              9.08034e-05
    33                  72.9296              9.08034e-05
    34                  73.9936              7.97087e-05
    35                  73.9936              7.97087e-05
    36                   74.669               7.3381e-05
    37                  75.1176              6.94572e-05
    38                   75.234              6.84746e-05
    39                  75.7077              6.46144e-05
    40                  75.7077              6.46144e-05
    41                  86.2462              1.77715e-05
    42                  87.7031              1.48668e-05
    43                  91.0844              9.82512e-06
    44                  91.0844              9.82511e-06
    45                  91.4685              9.37348e-06
    46                  91.4685              9.37348e-06
    47                  94.1323              6.76382e-06
    48                  95.6225              5.63525e-06
    49                  95.6225              5.63525e-06
    50                  97.5251               4.4637e-06
    51                  97.5435              4.45366e-06
    52                  105.814              1.61712e-06
    53                  110.203               9.4461e-07
    54                  110.203               9.4461e-07
    55                  110.802              8.77692e-07
    56                  112.126              7.46305e-07
    57                  115.669              4.83531e-07
    58                  115.935              4.68058e-07
    59                  116.114              4.57912e-07
    60                  116.114              4.57912e-07
    61                  120.197              2.77673e-07
    62                  123.791              1.78786e-07
    63                  124.945              1.55228e-07
    64                  124.945              1.55228e-07
    65                  127.914              1.07895e-07
    66                  127.914              1.07895e-07
    67                  130.397              7.95994e-08
    68                   131.87               6.6456e-08
    69                  134.783               4.6513e-08
    70                  135.999              4.00759e-08
    71                  135.999              4.00759e-08
    72                   136.19              3.91469e-08
    73                  137.161              3.47568e-08
    74                  137.292              3.42075e-08
    75                  138.382              2.99318e-08
    76                  138.382              2.99318e-08
    77                  138.488              2.95457e-08
    78                  138.488              2.95457e-08
    79                  139.527              2.60142e-08
    80                   139.55              2.59416e-08
    81                  143.021              1.69563e-08
    82                  143.021              1.69563e-08
    83                  144.134              1.47954e-08
    84                  149.386              7.77522e-09
    85                  149.532              7.63677e-09
    86                  149.532              7.63676e-09
    87                  150.207              7.03088e-09
    88                  150.284              6.96477e-09
    89                  156.218              3.36694e-09
    90                    156.3              3.33337e-09
    91                   157.24              2.97075e-09
    92                   157.24              2.97075e-09
    93                  159.098              2.36603e-09
    94                  159.477              2.25862e-09
    95                  159.477              2.25862e-09
    96                  159.578              2.23088e-09
    97                  159.775              2.17764e-09
    98                   163.11              1.44733e-09
    99                   163.11              1.44733e-09
   100                  168.071              7.88192e-10


