## w(eV)         sigma(Sm^-1)     kappa(W(mK)^-1)        L12/e(Am^-1)      L22/e^2(Wm^-1)
    0.01              183076               24647         3.78494e+07         7.94831e+09
    0.03              183098             24656.1         3.78534e+07         7.94904e+09
    0.05              183143             24674.3         3.78614e+07         7.95051e+09
    0.07              183211             24701.6         3.78734e+07         7.95272e+09
    0.09              183301             24738.1         3.78895e+07         7.95567e+09
    0.11              183415             24783.8         3.79095e+07         7.95935e+09
    0.13              183551             24838.6         3.79337e+07         7.96378e+09
    0.15              183710             24902.8         3.79619e+07         7.96896e+09
    0.17              183892             24976.3         3.79941e+07         7.97489e+09
    0.19              184098             25059.3         3.80306e+07         7.98157e+09
    0.21              184327             25151.7         3.80711e+07         7.98902e+09
    0.23              184580             25253.6         3.81159e+07         7.99723e+09
    0.25              184857             25365.2         3.81649e+07         8.00621e+09
    0.27              185158             25486.4         3.82182e+07         8.01597e+09
    0.29              185484             25617.4         3.82757e+07         8.02652e+09
    0.31              185834             25758.2         3.83376e+07         8.03786e+09
    0.33              186209             25908.8         3.84039e+07         8.04999e+09
    0.35              186609             26069.3         3.84745e+07         8.06293e+09
    0.37              187034             26239.7         3.85497e+07         8.07668e+09
    0.39              187485             26419.9         3.86293e+07         8.09124e+09
    0.41              187961               26610         3.87134e+07         8.10662e+09
    0.43              188463             26809.7          3.8802e+07         8.12283e+09
    0.45              188991               27019         3.88951e+07         8.13987e+09
    0.47              189544             27237.6         3.89928e+07         8.15773e+09
    0.49              190123             27465.2          3.9095e+07         8.17642e+09
    0.51              190727             27701.6         3.92017e+07         8.19594e+09
    0.53              191356             27946.2         3.93129e+07         8.21628e+09
    0.55              192010             28198.5         3.94284e+07         8.23743e+09
    0.57              192687             28457.8         3.95482e+07         8.25939e+09
    0.59              193387             28723.3         3.96721e+07         8.28213e+09
    0.61              194108             28994.1         3.98001e+07         8.30563e+09
    0.63              194850               29269         3.99319e+07         8.32987e+09
    0.65              195610             29546.8         4.00673e+07         8.35483e+09
    0.67              196388               29826         4.02061e+07         8.38045e+09
    0.69              197180             30105.1         4.03479e+07         8.40671e+09
    0.71              197984             30382.2         4.04924e+07         8.43356e+09
    0.73              198799             30655.4         4.06393e+07         8.46093e+09
    0.75              199620             30922.7          4.0788e+07         8.48878e+09
    0.77              200444             31181.8         4.09383e+07         8.51704e+09
    0.79              201269             31430.6         4.10895e+07         8.54566e+09
    0.81              202092             31666.7         4.12413e+07         8.57455e+09
    0.83              202908             31887.9         4.13933e+07         8.60367e+09
    0.85              203716             32092.2         4.15449e+07         8.63295e+09
    0.87              204511             32277.5         4.16958e+07         8.66235e+09
    0.89              205293             32442.3         4.18457e+07         8.69181e+09
    0.91              206059             32585.3         4.19944e+07         8.72131e+09
    0.93              206809             32705.6         4.21418e+07         8.75084e+09
    0.95              207542             32802.9         4.22878e+07          8.7804e+09
    0.97              208259             32877.5         4.24327e+07         8.81002e+09
    0.99              208962             32930.2         4.25766e+07         8.83974e+09
    1.01              209654             32962.4         4.27201e+07         8.86964e+09
    1.03              210339             32976.1         4.28637e+07         8.89981e+09
    1.05              211021               32974         4.30081e+07         8.93035e+09
    1.07              211705               32959         4.31542e+07         8.96138e+09
    1.09              212398             32934.4         4.33028e+07         8.99305e+09
    1.11              213106             32904.1         4.34549e+07          9.0255e+09
    1.13              213835             32871.7         4.36115e+07         9.05889e+09
    1.15              214591             32841.1         4.37735e+07         9.09335e+09
    1.17              215383             32816.2          4.3942e+07         9.12905e+09
    1.19              216214             32800.5         4.41178e+07         9.16612e+09
    1.21              217092             32797.5         4.43019e+07         9.20469e+09
    1.23              218021             32810.1         4.44951e+07         9.24489e+09
    1.25              219006             32841.2         4.46979e+07         9.28682e+09
    1.27              220050             32892.9         4.49111e+07         9.33057e+09
    1.29              221157             32967.1          4.5135e+07         9.37623e+09
    1.31              222330             33065.3         4.53701e+07         9.42383e+09
    1.33              223569             33188.3         4.56165e+07         9.47343e+09
    1.35              224876             33336.6         4.58745e+07         9.52505e+09
    1.37              226250             33510.4          4.6144e+07         9.57867e+09
    1.39              227691             33709.2         4.64248e+07         9.63429e+09
    1.41              229196             33932.3         4.67167e+07         9.69184e+09
    1.43              230763             34178.4         4.70191e+07         9.75127e+09
    1.45              232387             34445.8         4.73315e+07         9.81247e+09
    1.47              234064             34732.4         4.76531e+07         9.87533e+09
    1.49              235788             35035.8         4.79828e+07         9.93968e+09
    1.51              237550             35353.1         4.83196e+07         1.00053e+10
    1.53              239343             35680.9         4.86619e+07         1.00721e+10
    1.55              241155             36015.4         4.90083e+07         1.01397e+10
    1.57              242977             36352.6         4.93568e+07         1.02078e+10
    1.59              244794             36687.9         4.97055e+07         1.02762e+10
    1.61              246593             37016.4         5.00521e+07         1.03444e+10
    1.63              248359               37333         5.03942e+07         1.04121e+10
    1.65              250076             37632.4         5.07292e+07         1.04788e+10
    1.67              251728             37908.8         5.10546e+07         1.05443e+10
    1.69              253297             38156.7         5.13676e+07         1.06079e+10
    1.71              254768             38370.5         5.16657e+07         1.06694e+10
    1.73              256125             38544.7         5.19463e+07         1.07283e+10
    1.75              257353             38674.2         5.22071e+07         1.07842e+10
    1.77              258440             38754.1         5.24461e+07         1.08368e+10
    1.79              259377             38780.4         5.26619e+07          1.0886e+10
    1.81              260156             38749.6         5.28533e+07         1.09314e+10
    1.83              260773               38659         5.30197e+07         1.09731e+10
    1.85              261230               38507         5.31612e+07          1.1011e+10
    1.87              261528             38292.8         5.32784e+07         1.10453e+10
    1.89              261676             38016.7         5.33726e+07         1.10762e+10
    1.91              261684             37680.1         5.34454e+07         1.11039e+10
    1.93              261567             37285.3         5.34992e+07         1.11288e+10
    1.95              261339             36835.4         5.35365e+07         1.11514e+10
    1.97              261019             36334.5         5.35604e+07         1.11721e+10
    1.99              260625             35787.3         5.35739e+07         1.11915e+10
    2.01              260179               35199         5.35802e+07         1.12101e+10
    2.03              259698             34575.1         5.35826e+07         1.12284e+10
    2.05              259203             33921.6         5.35843e+07         1.12469e+10
    2.07              258711             33244.1         5.35881e+07         1.12662e+10
    2.09              258238             32548.6         5.35968e+07         1.12866e+10
    2.11              257801             31840.5         5.36129e+07         1.13087e+10
    2.13              257412             31125.1         5.36387e+07         1.13327e+10
    2.15              257083             30407.3          5.3676e+07          1.1359e+10
    2.17              256824             29691.6         5.37266e+07         1.13879e+10
    2.19              256643               28982         5.37918e+07         1.14195e+10
    2.21              256547             28281.9         5.38727e+07         1.14542e+10
    2.23              256542             27594.5         5.39703e+07          1.1492e+10
    2.25              256631             26922.2         5.40853e+07         1.15332e+10
    2.27              256817             26267.2         5.42182e+07         1.15777e+10
    2.29              257102             25631.2         5.43694e+07         1.16256e+10
    2.31              257488             25015.4         5.45391e+07         1.16771e+10
    2.33              257975             24420.8         5.47276e+07         1.17322e+10
    2.35              258563             23848.2         5.49349e+07         1.17908e+10
    2.37              259252             23297.7          5.5161e+07          1.1853e+10
    2.39              260042             22769.7         5.54058e+07         1.19189e+10
    2.41              260931               22264         5.56694e+07         1.19884e+10
    2.43              261918             21780.4         5.59516e+07         1.20614e+10
    2.45              263002             21318.6         5.62524e+07         1.21382e+10
    2.47              264183             20878.2         5.65716e+07         1.22185e+10
    2.49              265460             20458.5         5.69091e+07         1.23025e+10
    2.51              266830               20059          5.7265e+07           1.239e+10
    2.53              268294               19679          5.7639e+07         1.24813e+10
    2.55              269850             19317.9         5.80312e+07         1.25762e+10
    2.57              271499             18974.9         5.84415e+07         1.26747e+10
    2.59              273238             18649.4           5.887e+07          1.2777e+10
    2.61              275068             18340.8         5.93167e+07          1.2883e+10
    2.63              276989             18048.2         5.97816e+07         1.29927e+10
    2.65              279000               17771         6.02648e+07         1.31062e+10
    2.67              281101             17508.7         6.07664e+07         1.32236e+10
    2.69              283293             17260.4         6.12866e+07         1.33448e+10
    2.71              285576             17025.8         6.18256e+07           1.347e+10
    2.73              287951               16804         6.23835e+07         1.35992e+10
    2.75              290418             16594.7         6.29606e+07         1.37324e+10
    2.77              292977             16397.2         6.35573e+07         1.38698e+10
    2.79              295631             16210.9         6.41736e+07         1.40115e+10
    2.81              298380             16035.5         6.48101e+07         1.41574e+10
    2.83              301225             15870.4         6.54671e+07         1.43077e+10
    2.85              304169             15715.1          6.6145e+07         1.44626e+10
    2.87              307212             15569.2         6.68442e+07          1.4622e+10
    2.89              310356             15432.2         6.75652e+07         1.47862e+10
    2.91              313605             15303.9         6.83085e+07         1.49553e+10
    2.93              316959             15183.7         6.90746e+07         1.51293e+10
    2.95              320421             15071.3         6.98642e+07         1.53085e+10
    2.97              323993             14966.4         7.06778e+07         1.54929e+10
    2.99              327680             14868.6          7.1516e+07         1.56827e+10
    3.01              331482             14777.6         7.23797e+07         1.58781e+10
    3.03              335404             14693.1         7.32695e+07         1.60793e+10
    3.05              339449             14614.8         7.41862e+07         1.62864e+10
    3.07              343620             14542.4         7.51306e+07         1.64996e+10
    3.09              347921             14475.7         7.61036e+07         1.67192e+10
    3.11              352356             14414.4         7.71061e+07         1.69452e+10
    3.13              356929             14358.4         7.81391e+07         1.71781e+10
    3.15              361645             14307.3         7.92036e+07         1.74179e+10
    3.17              366508               14261         8.03007e+07          1.7665e+10
    3.19              371523             14219.3         8.14315e+07         1.79195e+10
    3.21              376695             14181.9         8.25972e+07         1.81818e+10
    3.23              382031             14148.8          8.3799e+07         1.84522e+10
    3.25              387535             14119.7         8.50383e+07         1.87309e+10
    3.27              393214             14094.5         8.63164e+07         1.90182e+10
    3.29              399074             14073.1         8.76349e+07         1.93146e+10
    3.31              405122             14055.2         8.89952e+07         1.96203e+10
    3.33              411365             14040.8         9.03989e+07         1.99357e+10
    3.35              417811             14029.8         9.18478e+07         2.02611e+10
    3.37              424467             14021.9         9.33436e+07         2.05971e+10
    3.39              431342             14017.2         9.48883e+07          2.0944e+10
    3.41              438445             14015.5         9.64837e+07         2.13022e+10
    3.43              445784             14016.7         9.81321e+07         2.16723e+10
    3.45              453370             14020.6         9.98355e+07         2.20546e+10
    3.47              461212             14027.3         1.01596e+08         2.24499e+10
    3.49              469323             14036.7         1.03417e+08         2.28585e+10
    3.51              477712             14048.5           1.053e+08          2.3281e+10
    3.53              486392             14062.9         1.07248e+08         2.37182e+10
    3.55              495375             14079.6         1.09264e+08         2.41705e+10
    3.57              504676             14098.7         1.11351e+08         2.46388e+10
    3.59              514307             14120.1         1.13512e+08         2.51236e+10
    3.61              524284             14143.6          1.1575e+08         2.56258e+10
    3.63              534623             14169.3          1.1807e+08         2.61462e+10
    3.65              545339             14197.1         1.20474e+08         2.66855e+10
    3.67              556451             14226.9         1.22966e+08         2.72447e+10
    3.69              567976             14258.8         1.25552e+08         2.78246e+10
    3.71              579935             14292.5         1.28234e+08         2.84263e+10
    3.73              592347             14328.2         1.31018e+08         2.90508e+10
    3.75              605234             14365.7         1.33909e+08         2.96992e+10
    3.77              618620               14405         1.36911e+08         3.03727e+10
    3.79              632527             14446.1          1.4003e+08         3.10724e+10
    3.81              646982               14489         1.43272e+08         3.17996e+10
    3.83              662012             14533.5         1.46643e+08         3.25558e+10
    3.85              677645             14579.8         1.50149e+08         3.33423e+10
    3.87              693910             14627.7         1.53797e+08         3.41606e+10
    3.89              710840             14677.1         1.57595e+08         3.50124e+10
    3.91              728468             14728.2         1.61548e+08         3.58993e+10
    3.93              746830             14780.9         1.65667e+08         3.68232e+10
    3.95              765961               14835         1.69958e+08         3.77858e+10
    3.97              785902             14890.7          1.7443e+08         3.87891e+10
    3.99              806694             14947.9         1.79094e+08         3.98353e+10
    4.01              828380             15006.5         1.83958e+08         4.09265e+10
    4.03              851005             15066.6         1.89033e+08         4.20651e+10
    4.05              874618             15128.1          1.9433e+08         4.32533e+10
    4.07              899268               15191         1.99859e+08         4.44939e+10
    4.09              925008             15255.2         2.05633e+08         4.57893e+10
    4.11              951893             15320.9         2.11664e+08         4.71424e+10
    4.13              979980             15387.9         2.17965e+08         4.85561e+10
    4.15         1.00933e+06             15456.2         2.24549e+08         5.00333e+10
    4.17            1.04e+06             15525.9         2.31429e+08         5.15771e+10
    4.19         1.07206e+06             15596.8         2.38621e+08         5.31909e+10
    4.21         1.10557e+06               15669         2.46139e+08         5.48778e+10
    4.23          1.1406e+06             15742.5         2.53998e+08         5.66412e+10
    4.25         1.17721e+06             15817.3         2.62213e+08         5.84845e+10
    4.27         1.21548e+06             15893.3         2.70799e+08         6.04112e+10
    4.29         1.25548e+06             15970.5         2.79772e+08         6.24248e+10
    4.31         1.29726e+06               16049         2.89147e+08         6.45285e+10
    4.33          1.3409e+06             16128.7         2.98938e+08         6.67257e+10
    4.35         1.38645e+06             16209.5          3.0916e+08         6.90194e+10
    4.37         1.43398e+06             16291.6         3.19824e+08         7.14126e+10
    4.39         1.48353e+06             16374.8         3.30942e+08         7.39078e+10
    4.41         1.53514e+06             16459.1         3.42524e+08          7.6507e+10
    4.43         1.58885e+06             16544.6         3.54576e+08         7.92117e+10
    4.45         1.64467e+06             16631.3         3.67101e+08         8.20228e+10
    4.47         1.70259e+06               16719           3.801e+08           8.494e+10
    4.49          1.7626e+06             16807.9         3.93565e+08         8.79622e+10
    4.51         1.82464e+06             16897.9         4.07488e+08         9.10868e+10
    4.53         1.88863e+06               16989         4.21848e+08         9.43098e+10
    4.55         1.95445e+06             17081.1          4.3662e+08         9.76251e+10
    4.57         2.02196e+06             17174.3         4.51768e+08         1.01025e+11
    4.59         2.09092e+06             17268.6         4.67245e+08         1.04499e+11
    4.61          2.1611e+06             17363.9         4.82994e+08         1.08033e+11
    4.63         2.23216e+06             17460.2         4.98942e+08         1.11613e+11
    4.65         2.30373e+06             17557.6         5.15003e+08         1.15217e+11
    4.67         2.37536e+06               17656         5.31076e+08         1.18825e+11
    4.69         2.44651e+06             17755.3         5.47043e+08         1.22408e+11
    4.71         2.51661e+06             17855.7         5.62773e+08         1.25938e+11
    4.73         2.58498e+06               17957         5.78115e+08         1.29382e+11
    4.75         2.65091e+06             18059.3         5.92908e+08         1.32701e+11
    4.77         2.71361e+06             18162.5         6.06977e+08         1.35859e+11
    4.79         2.77228e+06             18266.7         6.20139e+08         1.38812e+11
    4.81         2.82606e+06             18371.8         6.32205e+08          1.4152e+11
    4.83         2.87413e+06             18477.8         6.42988e+08         1.43939e+11
    4.85         2.91568e+06             18584.7         6.52305e+08         1.46029e+11
    4.87         2.94994e+06             18692.5         6.59986e+08         1.47751e+11
    4.89         2.97624e+06             18801.1         6.65879e+08         1.49072e+11
    4.91         2.99402e+06             18910.7         6.69858e+08         1.49964e+11
    4.93         3.00285e+06               19021         6.71828e+08         1.50403e+11
    4.95         3.00246e+06             19132.2         6.71727e+08         1.50378e+11
    4.97         2.99275e+06             19244.3         6.69534e+08         1.49884e+11
    4.99         2.97381e+06             19357.1         6.65266e+08         1.48923e+11
    5.01         2.94588e+06             19470.7         6.58981e+08         1.47509e+11
    5.03         2.90939e+06             19585.1         6.50773e+08         1.45663e+11
    5.05          2.8649e+06             19700.3         6.40769e+08         1.43414e+11
    5.07         2.81311e+06             19816.2         6.29125e+08         1.40797e+11
    5.09         2.75481e+06             19932.9         6.16018e+08         1.37851e+11
    5.11         2.69085e+06             20050.2         6.01639e+08         1.34619e+11
    5.13         2.62211e+06             20168.3         5.86188e+08         1.31147e+11
    5.15          2.5495e+06             20287.1         5.69867e+08         1.27479e+11
    5.17         2.47389e+06             20406.6         5.52873e+08          1.2366e+11
    5.19         2.39612e+06             20526.8         5.35395e+08         1.19732e+11
    5.21         2.31699e+06             20647.7         5.17608e+08         1.15735e+11
    5.23          2.2372e+06             20769.2         4.99674e+08         1.11705e+11
    5.25         2.15739e+06             20891.3         4.81736e+08         1.07674e+11
    5.27         2.07814e+06             21014.1         4.63921e+08          1.0367e+11
    5.29         1.99991e+06             21137.5         4.46337e+08         9.97186e+10
    5.31         1.92311e+06             21261.5         4.29074e+08          9.5839e+10
    5.33         1.84809e+06             21386.2         4.12209e+08         9.20484e+10
    5.35         1.77509e+06             21511.4         3.95799e+08         8.83602e+10
    5.37         1.70433e+06             21637.3          3.7989e+08         8.47846e+10
    5.39         1.63596e+06             21763.7         3.64518e+08         8.13291e+10
    5.41         1.57008e+06             21890.8         3.49704e+08         7.79991e+10
    5.43         1.50675e+06             22018.4         3.35463e+08         7.47976e+10
    5.45           1.446e+06             22146.7         3.21801e+08         7.17261e+10
    5.47         1.38783e+06             22275.6         3.08717e+08         6.87846e+10
    5.49         1.33221e+06               22405         2.96208e+08         6.59718e+10
    5.51         1.27911e+06             22535.1         2.84263e+08         6.32856e+10
    5.53         1.22847e+06             22665.9         2.72869e+08         6.07232e+10
    5.55         1.18021e+06             22797.2         2.62011e+08          5.8281e+10
    5.57         1.13427e+06             22929.3         2.51671e+08         5.59553e+10
    5.59         1.09056e+06               23062         2.41832e+08         5.37417e+10
    5.61         1.04898e+06             23195.4         2.32473e+08          5.1636e+10
    5.63         1.00947e+06             23329.5         2.23575e+08         4.96337e+10
    5.65              971910             23464.4         2.15117e+08         4.77301e+10
    5.67              936228             23600.1          2.0708e+08         4.59209e+10
    5.69              902332             23736.6         1.99443e+08         4.42015e+10
    5.71              870135             23873.9         1.92187e+08         4.25676e+10
    5.73              839554             24012.2         1.85293e+08         4.10149e+10
    5.75              810506             24151.5         1.78743e+08         3.95393e+10
    5.77              782914             24291.8         1.72519e+08         3.81369e+10
    5.79              756702             24433.2         1.66605e+08         3.68039e+10
    5.81              731800             24575.7         1.60984e+08         3.55366e+10
    5.83              708137             24719.5         1.55641e+08         3.43317e+10
    5.85              685649             24864.6         1.50561e+08         3.31857e+10
    5.87              664274             25011.2          1.4573e+08         3.20955e+10
    5.89              643954             25159.2         1.41135e+08         3.10583e+10
    5.91              624633             25308.8         1.36764e+08         3.00711e+10
    5.93              606258             25460.2         1.32605e+08         2.91314e+10
    5.95              588780             25613.4         1.28646e+08         2.82366e+10
    5.97              572151             25768.6         1.24877e+08         2.73843e+10
    5.99              556329             25925.9         1.21288e+08         2.65723e+10
    6.01              541271             26085.5          1.1787e+08         2.57986e+10
    6.03              526939             26247.5         1.14614e+08          2.5061e+10
    6.05              513294               26412         1.11512e+08         2.43578e+10
    6.07              500304             26579.3         1.08555e+08         2.36871e+10
    6.09              487934             26749.6         1.05737e+08         2.30473e+10
    6.11              476154             26922.9          1.0305e+08         2.24369e+10
    6.13              464937             27099.6         1.00488e+08         2.18544e+10
    6.15              454253             27279.9         9.80452e+07         2.12983e+10
    6.17              444078             27463.9         9.57152e+07         2.07675e+10
    6.19              434388             27651.8         9.34927e+07         2.02605e+10
    6.21              425161               27844         9.13727e+07         1.97764e+10
    6.23              416374             28040.6         8.93504e+07          1.9314e+10
    6.25              408009             28241.9         8.74212e+07         1.88723e+10
    6.27              400047             28448.1          8.5581e+07         1.84504e+10
    6.29              392470             28659.5         8.38256e+07         1.80472e+10
    6.31              385261             28876.2         8.21514e+07          1.7662e+10
    6.33              378406             29098.6         8.05548e+07         1.72939e+10
    6.35              371889             29326.7         7.90325e+07         1.69423e+10
    6.37              365698             29560.9         7.75812e+07         1.66063e+10
    6.39              359818             29801.2         7.61982e+07         1.62854e+10
    6.41              354239             30047.9         7.48806e+07         1.59788e+10
    6.43              348948             30300.9         7.36258e+07          1.5686e+10
    6.45              343936             30560.4         7.24312e+07         1.54065e+10
    6.47              339191             30826.4         7.12946e+07         1.51396e+10
    6.49              334705             31098.7         7.02138e+07         1.48848e+10
    6.51              330468             31377.2         6.91867e+07         1.46418e+10
    6.53              326472             31661.7         6.82113e+07           1.441e+10
    6.55              322708             31951.8         6.72856e+07          1.4189e+10
    6.57              319168             32246.8         6.64079e+07         1.39784e+10
    6.59              315845             32546.2         6.55765e+07         1.37779e+10
    6.61              312731             32849.2         6.47896e+07         1.35869e+10
    6.63              309819             33154.6         6.40456e+07         1.34052e+10
    6.65              307101             33461.2          6.3343e+07         1.32325e+10
    6.67              304571             33767.5         6.26801e+07         1.30683e+10
    6.69              302219             34071.7         6.20554e+07         1.29123e+10
    6.71              300040             34371.8         6.14674e+07         1.27643e+10
    6.73              298024             34665.4         6.09144e+07         1.26239e+10
    6.75              296163             34949.9         6.03948e+07         1.24907e+10
    6.77              294450             35222.5         5.99071e+07         1.23645e+10
    6.79              292874             35479.8         5.94496e+07         1.22449e+10
    6.81              291426             35718.5         5.90205e+07         1.21316e+10
    6.83              290096             35934.9          5.8618e+07         1.20243e+10
    6.85              288874             36125.2         5.82405e+07         1.19226e+10
    6.87              287749             36285.5         5.78859e+07         1.18262e+10
    6.89              286710               36412         5.75526e+07         1.17348e+10
    6.91              285747             36500.8         5.72386e+07         1.16481e+10
    6.93              284848             36548.6         5.69422e+07         1.15657e+10
    6.95              284003               36552         5.66617e+07         1.14874e+10
    6.97              283202             36508.5         5.63954e+07         1.14128e+10
    6.99              282437             36415.9         5.61419e+07         1.13418e+10
    7.01              281700             36272.9         5.58998e+07          1.1274e+10
    7.03              280986             36078.9         5.56682e+07         1.12092e+10
    7.05              280289             35834.1         5.54462e+07         1.11474e+10
    7.07              279607             35539.7         5.52334e+07         1.10885e+10
    7.09              278939             35197.7         5.50293e+07         1.10322e+10
    7.11              278287             34810.7         5.48342e+07         1.09787e+10
    7.13              277653             34382.4         5.46482e+07         1.09279e+10
    7.15              277042             33916.9         5.44719e+07         1.08798e+10
    7.17              276460             33418.8         5.43061e+07         1.08347e+10
    7.19              275914             32892.9         5.41517e+07         1.07924e+10
    7.21              275411             32344.5         5.40096e+07         1.07533e+10
    7.23              274961             31778.7         5.38811e+07         1.07174e+10
    7.25              274572             31200.5         5.37673e+07         1.06848e+10
    7.27              274253               30615         5.36695e+07         1.06558e+10
    7.29              274011             30026.6         5.35887e+07         1.06305e+10
    7.31              273856             29439.6         5.35261e+07          1.0609e+10
    7.33              273795             28857.8         5.34827e+07         1.05915e+10
    7.35              273836             28284.7         5.34597e+07         1.05781e+10
    7.37              273983               27723         5.34578e+07         1.05689e+10
    7.39              274245             27175.4         5.34779e+07         1.05641e+10
    7.41              274625             26643.9         5.35207e+07         1.05637e+10
    7.43              275128               26130          5.3587e+07         1.05678e+10
    7.45              275759             25635.3         5.36772e+07         1.05766e+10
    7.47              276522             25160.4         5.37921e+07           1.059e+10
    7.49              277419             24706.2         5.39321e+07         1.06083e+10
    7.51              278454               24273         5.40975e+07         1.06313e+10
    7.53              279630               23861         5.42889e+07         1.06593e+10
    7.55              280948             23470.1         5.45067e+07         1.06922e+10
    7.57              282411               23100         5.47511e+07         1.07301e+10
    7.59              284021             22750.5         5.50226e+07         1.07731e+10
    7.61              285779               22421         5.53214e+07         1.08213e+10
    7.63              287688             22110.8         5.56479e+07         1.08746e+10
    7.65              289749             21819.3         5.60024e+07         1.09332e+10
    7.67              291963             21545.6         5.63851e+07         1.09971e+10
    7.69              294331             21288.8         5.67963e+07         1.10663e+10
    7.71              296856             21047.9         5.72363e+07         1.11409e+10
    7.73              299536             20821.8         5.77053e+07          1.1221e+10
    7.75              302374             20609.3         5.82034e+07         1.13065e+10
    7.77              305368             20409.1         5.87309e+07         1.13976e+10
    7.79              308521             20219.9         5.92878e+07         1.14943e+10
    7.81              311830             20040.2         5.98742e+07         1.15966e+10
    7.83              315297             19868.4         6.04902e+07         1.17045e+10
    7.85              318919             19703.1         6.11359e+07         1.18181e+10
    7.87              322696             19542.4         6.18112e+07         1.19374e+10
    7.89              326627             19384.6          6.2516e+07         1.20624e+10
    7.91              330711             19227.9         6.32505e+07         1.21932e+10
    7.93              334947             19070.7         6.40145e+07         1.23297e+10
    7.95              339333               18911         6.48082e+07         1.24721e+10
    7.97              343869             18747.3         6.56317e+07         1.26203e+10
    7.99              348556             18577.8         6.64852e+07         1.27746e+10
    8.01              353395             18401.3         6.73692e+07         1.29349e+10
    8.03              358388             18216.4         6.82843e+07         1.31014e+10
    8.05              363539             18022.1         6.92313e+07         1.32743e+10
    8.07              368854             17817.6         7.02115e+07         1.34539e+10
    8.09              374340             17602.4         7.12263e+07         1.36404e+10
    8.11              380006             17376.5         7.22775e+07         1.38341e+10
    8.13              385865             17139.9         7.33672e+07         1.40355e+10
    8.15              391928               16893         7.44978e+07          1.4245e+10
    8.17              398213             16636.7         7.56723e+07         1.44631e+10
    8.19              404736             16371.7         7.68936e+07         1.46905e+10
    8.21              411516             16099.2         7.81652e+07         1.49275e+10
    8.23              418575             15820.6         7.94908e+07         1.51751e+10
    8.25              425932             15537.2         8.08742e+07         1.54337e+10
    8.27              433612             15250.4         8.23195e+07         1.57043e+10
    8.29              441638             14961.6         8.38307e+07         1.59874e+10
    8.31              450033             14672.4         8.54122e+07         1.62838e+10
    8.33              458821             14383.8         8.70683e+07         1.65945e+10
    8.35              468028             14097.3         8.88035e+07           1.692e+10
    8.37              477678             13813.9         9.06219e+07         1.72613e+10
    8.39              487793             13534.5         9.25282e+07         1.76191e+10
    8.41              498400               13260         9.45265e+07         1.79942e+10
    8.43              509519             12991.1         9.66211e+07         1.83874e+10
    8.45              521176             12728.3         9.88162e+07         1.87994e+10
    8.47              533390             12472.2         1.01116e+08         1.92311e+10
    8.49              546183             12222.9         1.03524e+08          1.9683e+10
    8.51              559574             11980.8         1.06043e+08         2.01558e+10
    8.53              573579               11746         1.08678e+08         2.06502e+10
    8.55              588215             11518.5          1.1143e+08         2.11666e+10
    8.57              603492             11298.3         1.14302e+08         2.17055e+10
    8.59              619420             11085.4         1.17296e+08         2.22671e+10
    8.61              636001             10879.6         1.20412e+08         2.28516e+10
    8.63              653234             10680.8          1.2365e+08         2.34589e+10
    8.65              671111             10488.7         1.27008e+08         2.40888e+10
    8.67              689617             10303.3         1.30484e+08         2.47406e+10
    8.69              708726             10124.2         1.34072e+08         2.54136e+10
    8.71              728403             9951.17         1.37767e+08         2.61065e+10
    8.73              748601             9784.05          1.4156e+08         2.68177e+10
    8.75              769260             9622.53         1.45438e+08          2.7545e+10
    8.77              790303             9466.37         1.49388e+08         2.82858e+10
    8.79              811639             9315.32         1.53394e+08         2.90369e+10
    8.81              833159             9169.11         1.57433e+08         2.97944e+10
    8.83              854736              9027.5         1.61484e+08          3.0554e+10
    8.85              876223             8890.25         1.65518e+08         3.13106e+10
    8.87              897458             8757.12         1.69504e+08         3.20583e+10
    8.89              918262             8627.87          1.7341e+08          3.2791e+10
    8.91              938439             8502.28         1.77199e+08         3.35019e+10
    8.93              957787             8380.13         1.80833e+08         3.41837e+10
    8.95              976092             8261.21         1.84272e+08         3.48292e+10
    8.97              993145             8145.32         1.87477e+08         3.54308e+10
    8.99         1.00874e+06             8032.27         1.90408e+08         3.59814e+10
    9.01         1.02268e+06             7921.86         1.93031e+08         3.64742e+10
    9.03         1.03479e+06             7813.92         1.95312e+08         3.69032e+10
    9.05         1.04494e+06             7708.29         1.97224e+08         3.72632e+10
    9.07         1.05299e+06              7604.8         1.98747e+08         3.75503e+10
    9.09          1.0589e+06             7503.31         1.99866e+08          3.7762e+10
    9.11         1.06261e+06             7403.67         2.00576e+08         3.78973e+10
    9.13         1.06416e+06             7305.77         2.00881e+08         3.79567e+10
    9.15          1.0636e+06             7209.47         2.00791e+08         3.79424e+10
    9.17         1.06103e+06             7114.67         2.00326e+08          3.7858e+10
    9.19         1.05659e+06             7021.28         1.99513e+08         3.77084e+10
    9.21         1.05047e+06              6929.2         1.98383e+08         3.74998e+10
    9.23         1.04285e+06             6838.37         1.96976e+08         3.72392e+10
    9.25         1.03396e+06             6748.72          1.9533e+08         3.69343e+10
    9.27         1.02403e+06             6660.19          1.9349e+08          3.6593e+10
    9.29         1.01328e+06             6572.75         1.91498e+08         3.62236e+10
    9.31         1.00195e+06             6486.36         1.89398e+08          3.5834e+10
    9.33              990263             6401.01         1.87231e+08         3.54321e+10
    9.35              978419             6316.68         1.85036e+08         3.50251e+10
    9.37              966613             6233.37         1.82849e+08         3.46198e+10
    9.39              955022             6151.08         1.80704e+08         3.42224e+10
    9.41              943801             6069.84         1.78628e+08         3.38384e+10
    9.43              933088             5989.66         1.76649e+08         3.34726e+10
    9.45              923001             5910.58         1.74788e+08         3.31291e+10
    9.47              913642             5832.62         1.73065e+08         3.28116e+10
    9.49              905096             5755.83         1.71495e+08         3.25231e+10
    9.51              897433             5680.24         1.70091e+08          3.2266e+10
    9.53              890713             5605.91         1.68866e+08         3.20424e+10
    9.55              884981             5532.86         1.67826e+08          3.1854e+10
    9.57              880275             5461.16         1.66981e+08         3.17021e+10
    9.59              876625             5390.85         1.66334e+08         3.15879e+10
    9.61              874055             5321.97         1.65891e+08          3.1512e+10
    9.63              872582             5254.58         1.65656e+08         3.14753e+10
    9.65              872223             5188.71          1.6563e+08         3.14782e+10
    9.67              872988              5124.4         1.65817e+08         3.15213e+10
    9.69              874888             5061.71         1.66218e+08         3.16049e+10
    9.71              877934             5000.65         1.66836e+08         3.17293e+10
    9.73              882134             4941.28         1.67672e+08         3.18951e+10
    9.75              887498             4883.63         1.68728e+08         3.21025e+10
    9.77              894037             4827.72         1.70007e+08         3.23519e+10
    9.79              901764             4773.58          1.7151e+08         3.26439e+10
    9.81              910694             4721.25         1.73241e+08         3.29791e+10
    9.83              920841             4670.74         1.75202e+08         3.33579e+10
    9.85              932227             4622.08         1.77398e+08         3.37812e+10
    9.87              944871             4575.29         1.79833e+08         3.42498e+10
    9.89              958800             4530.39         1.82512e+08         3.47646e+10
    9.91              974040              4487.4         1.85439e+08         3.53266e+10
    9.93              990623             4446.33         1.88621e+08         3.59369e+10
    9.95         1.00858e+06              4407.2         1.92065e+08          3.6597e+10
    9.97         1.02796e+06             4370.03         1.95777e+08         3.73081e+10
    9.99         1.04879e+06             4334.81         1.99767e+08         3.80718e+10
   10.01         1.07113e+06             4301.58         2.04042e+08         3.88898e+10
   10.03         1.09502e+06             4270.33         2.08612e+08          3.9764e+10
   10.05         1.12052e+06             4241.07         2.13488e+08         4.06962e+10
   10.07         1.14768e+06              4213.8          2.1868e+08         4.16886e+10
   10.09         1.17656e+06             4188.51           2.242e+08         4.27433e+10
   10.11         1.20723e+06             4165.22          2.3006e+08         4.38629e+10
   10.13         1.23976e+06             4143.89         2.36273e+08         4.50496e+10
   10.15         1.27422e+06              4124.5         2.42854e+08         4.63062e+10
   10.17         1.31068e+06             4107.04         2.49815e+08         4.76354e+10
   10.19         1.34921e+06             4091.45         2.57173e+08           4.904e+10
   10.21         1.38991e+06             4077.68         2.64941e+08         5.05228e+10
   10.23         1.43284e+06             4065.66         2.73136e+08         5.20868e+10
   10.25         1.47809e+06             4055.31         2.81772e+08         5.37349e+10
   10.27         1.52574e+06              4046.5         2.90864e+08           5.547e+10
   10.29         1.57587e+06              4039.1         3.00429e+08          5.7295e+10
   10.31         1.62854e+06             4032.96         3.10479e+08         5.92125e+10
   10.33         1.68383e+06             4027.89         3.21028e+08          6.1225e+10
   10.35          1.7418e+06             4023.67         3.32086e+08         6.33347e+10
   10.37         1.80249e+06             4020.04         3.43664e+08         6.55434e+10
   10.39         1.86594e+06             4016.72         3.55767e+08         6.78522e+10
   10.41         1.93216e+06             4013.41           3.684e+08         7.02618e+10
   10.43         2.00115e+06             4009.74         3.81559e+08          7.2772e+10
   10.45         2.07287e+06             4005.37         3.95239e+08         7.53814e+10
   10.47         2.14725e+06             3999.91         4.09427e+08         7.80875e+10
   10.49         2.22418e+06             3992.95         4.24101e+08         8.08864e+10
   10.51         2.30351e+06              3984.1         4.39232e+08         8.37724e+10
   10.53         2.38503e+06             3972.98          4.5478e+08          8.6738e+10
   10.55         2.46846e+06             3959.22         4.70694e+08         8.97733e+10
   10.57         2.55347e+06             3942.51         4.86909e+08         9.28659e+10
   10.59         2.63965e+06             3922.55         5.03346e+08         9.60009e+10
   10.61         2.72649e+06             3899.14          5.1991e+08         9.91602e+10
   10.63         2.81342e+06             3872.14          5.3649e+08         1.02323e+11
   10.65         2.89976e+06             3841.47          5.5296e+08         1.05464e+11
   10.67         2.98477e+06             3807.14         5.69175e+08         1.08557e+11
   10.69          3.0676e+06             3769.24         5.84975e+08          1.1157e+11
   10.71         3.14735e+06             3727.94         6.00186e+08         1.14472e+11
   10.73         3.22303e+06             3683.47         6.14623e+08         1.17225e+11
   10.75         3.29364e+06             3636.12         6.28093e+08         1.19795e+11
   10.77         3.35815e+06              3586.2         6.40399e+08         1.22142e+11
   10.79         3.41554e+06             3534.09         6.51348e+08          1.2423e+11
   10.81         3.46484e+06             3480.17         6.60753e+08         1.26024e+11
   10.83         3.50514e+06             3424.81         6.68443e+08         1.27492e+11
   10.85         3.53568e+06              3368.4         6.74271e+08         1.28604e+11
   10.87         3.55582e+06              3311.3         6.78116e+08         1.29337e+11
   10.89          3.5651e+06             3253.84          6.7989e+08         1.29676e+11
   10.91         3.56327e+06             3196.33         6.79544e+08         1.29611e+11
   10.93         3.55027e+06             3139.06          6.7707e+08         1.29139e+11
   10.95         3.52627e+06             3082.26         6.72497e+08         1.28268e+11
   10.97         3.49165e+06             3026.15         6.65898e+08          1.2701e+11
   10.99         3.44695e+06              2970.9         6.57379e+08         1.25385e+11
   11.01         3.39292e+06             2916.66         6.47078e+08         1.23422e+11
   11.03         3.33042e+06             2863.55         6.35162e+08         1.21149e+11
   11.05          3.2604e+06             2811.65         6.21813e+08         1.18604e+11
   11.07          3.1839e+06             2761.02         6.07226e+08         1.15823e+11
   11.09         3.10197e+06             2711.72         5.91604e+08         1.12844e+11
   11.11         3.01566e+06             2663.77         5.75148e+08         1.09706e+11
   11.13           2.926e+06             2617.18         5.58052e+08         1.06446e+11
   11.15         2.83395e+06             2571.96         5.40501e+08         1.03099e+11
   11.17         2.74042e+06             2528.09         5.22667e+08         9.96982e+10
   11.19         2.64622e+06             2485.55         5.04705e+08         9.62729e+10
   11.21         2.55207e+06             2444.31         4.86752e+08         9.28496e+10
   11.23         2.45861e+06             2404.36         4.68931e+08         8.94511e+10
   11.25         2.36638e+06             2365.64         4.51343e+08         8.60973e+10
   11.27         2.27582e+06             2328.12         4.34076e+08         8.28044e+10
   11.29         2.18731e+06             2291.76         4.17199e+08          7.9586e+10
   11.31         2.10115e+06             2256.53         4.00768e+08         7.64528e+10
   11.33         2.01755e+06             2222.37         3.84828e+08          7.3413e+10
   11.35         1.93669e+06             2189.26         3.69408e+08         7.04726e+10
   11.37         1.85868e+06             2157.14         3.54532e+08         6.76356e+10
   11.39         1.78357e+06             2125.97         3.40211e+08         6.49046e+10
   11.41         1.71142e+06             2095.72         3.26452e+08         6.22808e+10
   11.43         1.64221e+06             2066.36         3.13254e+08         5.97639e+10
   11.45         1.57591e+06             2037.83         3.00612e+08         5.73531e+10
   11.47         1.51249e+06             2010.11         2.88517e+08         5.50466e+10
   11.49         1.45186e+06             1983.16         2.76957e+08         5.28421e+10
   11.51         1.39397e+06             1956.96         2.65917e+08         5.07368e+10
   11.53         1.33871e+06             1931.45         2.55381e+08         4.87274e+10
   11.55         1.28601e+06             1906.63          2.4533e+08         4.68108e+10
   11.57         1.23576e+06             1882.46         2.35747e+08         4.49832e+10
   11.59         1.18785e+06              1858.9         2.26612e+08         4.32412e+10
   11.61          1.1422e+06             1835.95         2.17907e+08          4.1581e+10
   11.63          1.0987e+06             1813.56         2.09611e+08          3.9999e+10
   11.65         1.05725e+06             1791.72         2.01706e+08         3.84915e+10
   11.67         1.01775e+06             1770.41         1.94174e+08         3.70551e+10
   11.69              980108             1749.61         1.86997e+08         3.56862e+10
   11.71              944235             1729.28         1.80156e+08         3.43816e+10
   11.73              910041             1709.43         1.73635e+08          3.3138e+10
   11.75              877439             1690.02         1.67418e+08         3.19524e+10
   11.77              846348             1671.04         1.61489e+08         3.08216e+10
   11.79              816691             1652.48         1.55834e+08          2.9743e+10
   11.81              788394             1634.32         1.50437e+08         2.87139e+10
   11.83              761384             1616.54         1.45287e+08         2.77315e+10
   11.85              735596             1599.14         1.40369e+08         2.67936e+10
   11.87              710965             1582.09         1.35672e+08         2.58978e+10
   11.89              687432             1565.39         1.31184e+08         2.50418e+10
   11.91              664938             1549.02         1.26894e+08         2.42237e+10
   11.93              643430             1532.97         1.22793e+08         2.34414e+10
   11.95              622857             1517.24         1.18869e+08         2.26932e+10
   11.97              603171             1501.81         1.15115e+08         2.19771e+10
   11.99              584325             1486.67         1.11521e+08         2.12916e+10
   12.01              566277             1471.82         1.08079e+08         2.06351e+10
   12.03              548986             1457.24         1.04781e+08         2.00062e+10
   12.05              532414             1442.92         1.01621e+08         1.94034e+10
   12.07              516524             1428.87         9.85904e+07         1.88254e+10
   12.09              501282             1415.06         9.56835e+07         1.82709e+10
   12.11              486656              1401.5         9.28942e+07         1.77389e+10
   12.13              472615             1388.18         9.02164e+07         1.72281e+10
   12.15              459132             1375.09         8.76448e+07         1.67376e+10
   12.17              446177             1362.22         8.51741e+07         1.62663e+10
   12.19              433727             1349.57         8.27995e+07         1.58134e+10
   12.21              421756             1337.13         8.05164e+07         1.53779e+10
   12.23              410241              1324.9         7.83203e+07          1.4959e+10
   12.25              399162             1312.88         7.62072e+07         1.45559e+10
   12.27              388497             1301.05         7.41732e+07         1.41679e+10
   12.29              378228             1289.41         7.22145e+07         1.37943e+10
   12.31              368335             1277.96         7.03277e+07         1.34343e+10
   12.33              358802              1266.7         6.85094e+07         1.30875e+10
   12.35              349613             1255.61         6.67567e+07         1.27531e+10
   12.37              340751              1244.7         6.50664e+07         1.24306e+10
   12.39              332202             1233.96         6.34358e+07         1.21196e+10
   12.41              323953             1223.39         6.18623e+07         1.18194e+10
   12.43              315989             1212.99         6.03433e+07         1.15296e+10
   12.45              308299             1202.75         5.88764e+07         1.12498e+10
   12.47              300871             1192.66         5.74595e+07         1.09794e+10
   12.49              293693             1182.73         5.60903e+07         1.07182e+10
   12.51              286754             1172.96         5.47668e+07         1.04657e+10
   12.53              280045             1163.33          5.3487e+07         1.02215e+10
   12.55              273557             1153.85         5.22492e+07         9.98535e+09
   12.57              267279             1144.52         5.10516e+07         9.75685e+09
   12.59              261203             1135.33         4.98926e+07          9.5357e+09
   12.61              255320             1126.28         4.87704e+07          9.3216e+09
   12.63              249624             1117.36         4.76838e+07         9.11426e+09
   12.65              244107             1108.59         4.66312e+07         8.91341e+09
   12.67              238760             1099.94         4.56113e+07         8.71879e+09
   12.69              233579             1091.43         4.46227e+07         8.53015e+09
   12.71              228555             1083.05         4.36643e+07         8.34727e+09
   12.73              223683              1074.8         4.27349e+07         8.16991e+09
   12.75              218958             1066.67         4.18333e+07         7.99787e+09
   12.77              214373             1058.67         4.09586e+07         7.83093e+09
   12.79              209923              1050.8         4.01096e+07         7.66891e+09
   12.81              205603             1043.04         3.92854e+07         7.51161e+09
   12.83              201409             1035.41          3.8485e+07         7.35888e+09
   12.85              197334              1027.9         3.77077e+07         7.21052e+09
   12.87              193377             1020.51         3.69525e+07         7.06639e+09
   12.89              189530             1013.24         3.62186e+07         6.92632e+09
   12.91              185792             1006.08         3.55053e+07         6.79018e+09
   12.93              182158             999.047         3.48118e+07         6.65781e+09
   12.95              178624             992.125         3.41375e+07          6.5291e+09
   12.97              175186             985.319         3.34815e+07         6.40389e+09
   12.99              171842             978.628         3.28434e+07         6.28208e+09
   13.01              168588             972.051         3.22224e+07         6.16355e+09
   13.03              165421             965.589          3.1618e+07         6.04817e+09
   13.05              162338             959.241         3.10296e+07         5.93585e+09
   13.07              159336             953.007         3.04567e+07         5.82648e+09
   13.09              156412             946.887         2.98987e+07         5.71996e+09
   13.11              153564             940.881         2.93551e+07         5.61619e+09
   13.13              150790             934.989         2.88255e+07         5.51508e+09
   13.15              148086             929.211         2.83094e+07         5.41654e+09
   13.17              145450             923.548         2.78064e+07          5.3205e+09
   13.19              142881                 918          2.7316e+07         5.22686e+09
   13.21              140375             912.568         2.68378e+07         5.13555e+09
   13.23              137932             907.253         2.63714e+07          5.0465e+09
   13.25              135549             902.055         2.59165e+07         4.95964e+09
   13.27              133224             896.975         2.54726e+07         4.87488e+09
   13.29              130955             892.015         2.50395e+07         4.79218e+09
   13.31              128741             887.175         2.46168e+07         4.71146e+09
   13.33              126580             882.458         2.42042e+07         4.63266e+09
   13.35              124470             877.864         2.38014e+07         4.55573e+09
   13.37              122410             873.396          2.3408e+07          4.4806e+09
   13.39              120398             869.055         2.30239e+07         4.40723e+09
   13.41              118433             864.843         2.26486e+07         4.33555e+09
   13.43              116513             860.762          2.2282e+07         4.26553e+09
   13.45              114637             856.816         2.19238e+07          4.1971e+09
   13.47              112804             853.005         2.15737e+07         4.13023e+09
   13.49              111012             849.334         2.12315e+07         4.06486e+09
   13.51              109260             845.806          2.0897e+07         4.00096e+09
   13.53              107548             842.422         2.05699e+07         3.93847e+09
   13.55              105874             839.188         2.02501e+07         3.87737e+09
   13.57              104236             836.106         1.99373e+07         3.81761e+09
   13.59              102635             833.181         1.96314e+07         3.75915e+09
   13.61              101068             830.416         1.93321e+07         3.70196e+09
   13.63               99535             827.816         1.90392e+07           3.646e+09
   13.65             98035.1             825.385         1.87527e+07         3.59123e+09
   13.67             96567.2             823.129         1.84722e+07         3.53763e+09
   13.69             95130.5             821.053         1.81977e+07         3.48516e+09
   13.71             93724.2             819.161         1.79289e+07         3.43379e+09
   13.73             92347.4              817.46         1.76658e+07          3.3835e+09
   13.75             90999.3             815.954         1.74081e+07         3.33424e+09
   13.77             89679.2             814.651         1.71558e+07           3.286e+09
   13.79             88386.3             813.555         1.69086e+07         3.23875e+09
   13.81               87120             812.674         1.66665e+07         3.19247e+09
   13.83             85879.5             812.012         1.64294e+07         3.14712e+09
   13.85             84664.2             811.578          1.6197e+07         3.10268e+09
   13.87             83473.5             811.375         1.59693e+07         3.05913e+09
   13.89             82306.6             811.411         1.57461e+07         3.01645e+09
   13.91             81163.1             811.691         1.55274e+07         2.97461e+09
   13.93             80042.3             812.221          1.5313e+07         2.93359e+09
   13.95             78943.7             813.004         1.51028e+07         2.89338e+09
   13.97             77866.7             814.045         1.48967e+07         2.85395e+09
   13.99             76810.8             815.348         1.46946e+07         2.81528e+09
   14.01             75775.5             816.915         1.44964e+07         2.77736e+09
   14.03             74760.3             818.746         1.43021e+07         2.74016e+09
   14.05             73764.7             820.842         1.41115e+07         2.70368e+09
   14.07             72788.2             823.201         1.39245e+07         2.66788e+09
   14.09             71830.4              825.82          1.3741e+07         2.63276e+09
   14.11             70890.9             828.695          1.3561e+07          2.5983e+09
   14.13             69969.2             831.819         1.33844e+07         2.56448e+09
   14.15             69064.9             835.185         1.32112e+07         2.53129e+09
   14.17             68177.6             838.784         1.30411e+07         2.49871e+09
   14.19             67306.9             842.604         1.28742e+07         2.46673e+09
   14.21             66452.4             846.636         1.27103e+07         2.43534e+09
   14.23             65613.9             850.868         1.25495e+07         2.40451e+09
   14.25             64790.8              855.29         1.23916e+07         2.37425e+09
   14.27             63982.8              859.89         1.22366e+07         2.34454e+09
   14.29             63189.7              864.66         1.20844e+07         2.31535e+09
   14.31             62411.1             869.593          1.1935e+07         2.28669e+09
   14.33             61646.7             874.686         1.17882e+07         2.25855e+09
   14.35             60896.1             879.936         1.16441e+07          2.2309e+09
   14.37             60159.1             885.346         1.15025e+07         2.20373e+09
   14.39             59435.4             890.918         1.13635e+07         2.17705e+09
   14.41             58724.7             896.661         1.12269e+07         2.15083e+09
   14.43             58026.7             902.581         1.10928e+07         2.12507e+09
   14.45             57341.2             908.687         1.09609e+07         2.09976e+09
   14.47             56667.8             914.987         1.08314e+07         2.07489e+09
   14.49             56006.4             921.485         1.07042e+07         2.05044e+09
   14.51             55356.6             928.182         1.05791e+07         2.02641e+09
   14.53             54718.3             935.071         1.04563e+07         2.00279e+09
   14.55               54091              942.14         1.03355e+07         1.97957e+09
   14.57             53474.6             949.365         1.02168e+07         1.95674e+09
   14.59             52868.7              956.71            1.01e+07         1.93429e+09
   14.61             52273.1             964.129         9.98525e+06         1.91221e+09
   14.63             51687.4             971.559         9.87237e+06          1.8905e+09
   14.65             51111.3             978.925         9.76134e+06         1.86913e+09
   14.67             50544.5             986.136         9.65209e+06         1.84811e+09
   14.69             49986.7             993.088         9.54457e+06         1.82743e+09
   14.71             49437.5             999.663         9.43873e+06         1.80706e+09
   14.73             48896.5             1005.73          9.3345e+06         1.78702e+09
   14.75             48363.3             1011.16         9.23182e+06         1.76727e+09
   14.77             47837.7             1015.81         9.13064e+06         1.74782e+09
   14.79             47319.2             1019.54         9.03091e+06         1.72865e+09
   14.81             46807.4              1022.2         8.93255e+06         1.70976e+09
   14.83             46302.2             1023.68         8.83553e+06         1.69114e+09
   14.85             45803.1             1023.86         8.73978e+06         1.67278e+09
   14.87             45309.8             1022.65         8.64528e+06         1.65466e+09
   14.89             44822.2             1019.97         8.55196e+06         1.63679e+09
   14.91             44339.9             1015.79         8.45981e+06         1.61916e+09
   14.93               43863              1010.1         8.36878e+06         1.60176e+09
   14.95             43391.1              1002.9         8.27886e+06         1.58459e+09
   14.97             42924.3             994.245         8.19002e+06         1.56764e+09
   14.99             42462.5             984.209         8.10226e+06         1.55091e+09
   15.01             42005.8             972.888         8.01556e+06          1.5344e+09
   15.03               41554             960.397         7.92991e+06          1.5181e+09
   15.05             41107.4             946.869         7.84533e+06         1.50201e+09
   15.07             40665.9             932.445          7.7618e+06         1.48614e+09
   15.09             40229.6             917.272         7.67933e+06         1.47048e+09
   15.11             39798.6             901.497         7.59792e+06         1.45502e+09
   15.13             39372.9             885.264         7.51757e+06         1.43978e+09
   15.15             38952.7              868.71         7.43829e+06         1.42474e+09
   15.17               38538             851.963         7.36008e+06         1.40991e+09
   15.19             38128.9             835.139         7.28293e+06         1.39528e+09
   15.21             37725.3             818.343         7.20685e+06         1.38085e+09
   15.23             37327.2             801.665         7.13183e+06         1.36663e+09
   15.25             36934.8             785.185         7.05785e+06         1.35261e+09
   15.27               36548             768.969         6.98493e+06         1.33878e+09
   15.29             36166.7              753.07         6.91304e+06         1.32515e+09
   15.31             35790.9             737.533         6.84217e+06         1.31171e+09
   15.33             35420.6              722.39         6.77232e+06         1.29846e+09
   15.35             35055.7             707.667         6.70347e+06          1.2854e+09
   15.37             34696.1             693.381          6.6356e+06         1.27252e+09
   15.39             34341.8             679.544         6.56871e+06         1.25983e+09
   15.41             33992.7             666.159         6.50278e+06         1.24731e+09
   15.43             33648.7             653.228         6.43779e+06         1.23497e+09
   15.45             33309.7             640.747         6.37372e+06          1.2228e+09
   15.47             32975.7             628.709         6.31057e+06          1.2108e+09
   15.49             32646.5             617.107          6.2483e+06         1.19896e+09
   15.51             32322.1             605.928         6.18692e+06         1.18729e+09
   15.53             32002.4             595.161          6.1264e+06         1.17579e+09
   15.55             31687.3             584.791         6.06672e+06         1.16444e+09
   15.57             31376.6             574.806         6.00787e+06         1.15324e+09
   15.59             31070.4              565.19         5.94984e+06          1.1422e+09
   15.61             30768.5             555.929         5.89261e+06          1.1313e+09
   15.63             30470.8             547.008         5.83616e+06         1.12055e+09
   15.65             30177.3             538.412         5.78049e+06         1.10995e+09
   15.67             29887.8             530.127         5.72556e+06         1.09949e+09
   15.69             29602.4             522.139         5.67138e+06         1.08916e+09
   15.71             29320.9             514.434         5.61793e+06         1.07898e+09
   15.73             29043.2             506.999         5.56519e+06         1.06892e+09
   15.75             28769.3             499.821         5.51315e+06           1.059e+09
   15.77             28499.1             492.888          5.4618e+06         1.04921e+09
   15.79             28232.5             486.188         5.41112e+06         1.03954e+09
   15.81             27969.4             479.711         5.36111e+06            1.03e+09
   15.83             27709.9             473.445         5.31175e+06         1.02058e+09
   15.85             27453.8             467.381         5.26303e+06         1.01129e+09
   15.87               27201             461.508         5.21494e+06         1.00211e+09
   15.89             26951.5             455.817         5.16746e+06         9.93044e+08
   15.91             26705.3             450.301         5.12059e+06         9.84096e+08
   15.93             26462.2              444.95         5.07432e+06         9.75259e+08
   15.95             26222.3             439.757         5.02863e+06         9.66533e+08
   15.97             25985.5             434.714         4.98351e+06         9.57916e+08
   15.99             25751.6             429.814         4.93896e+06         9.49405e+08
   16.01             25520.7             425.052         4.89497e+06            9.41e+08
   16.03             25292.7              420.42         4.85153e+06         9.32698e+08
   16.05             25067.6             415.912         4.80862e+06         9.24497e+08
   16.07             24845.3             411.524         4.76624e+06         9.16397e+08
   16.09             24625.7             407.249         4.72437e+06         9.08395e+08
   16.11             24408.9             403.083         4.68302e+06         9.00489e+08
   16.13             24194.7             399.021         4.64218e+06         8.92679e+08
   16.15             23983.1             395.058         4.60182e+06         8.84963e+08
   16.17             23774.1              391.19         4.56196e+06         8.77338e+08
   16.19             23567.7             387.414         4.52257e+06         8.69805e+08
   16.21             23363.7             383.725         4.48365e+06         8.62361e+08
   16.23             23162.2              380.12          4.4452e+06         8.55004e+08
   16.25             22963.1             376.595          4.4072e+06         8.47735e+08
   16.27             22766.4             373.147         4.36965e+06          8.4055e+08
   16.29               22572             369.773         4.33254e+06          8.3345e+08
   16.31               22380             366.471         4.29587e+06         8.26432e+08
   16.33             22190.1             363.237         4.25963e+06         8.19495e+08
   16.35             22002.6             360.068          4.2238e+06         8.12639e+08
   16.37             21817.2             356.963          4.1884e+06         8.05861e+08
   16.39             21633.9             353.919          4.1534e+06         7.99161e+08
   16.41             21452.8             350.934          4.1188e+06         7.92538e+08
   16.43             21273.8             348.005          4.0846e+06          7.8599e+08
   16.45             21096.8             345.131         4.05079e+06         7.79516e+08
   16.47             20921.9             342.309         4.01737e+06         7.73116e+08
   16.49               20749             339.538         3.98432e+06         7.66788e+08
   16.51               20578             336.816         3.95165e+06         7.60531e+08
   16.53               20409             334.141         3.91935e+06         7.54343e+08
   16.55             20241.9             331.513          3.8874e+06         7.48225e+08
   16.57             20076.6             328.928         3.85582e+06         7.42175e+08
   16.59             19913.2             326.387         3.82459e+06         7.36192e+08
   16.61             19751.7             323.887          3.7937e+06         7.30274e+08
   16.63             19591.9             321.427         3.76315e+06         7.24422e+08
   16.65             19433.9             319.006         3.73295e+06         7.18634e+08
   16.67             19277.7             316.622         3.70307e+06          7.1291e+08
   16.69             19123.2             314.275         3.67352e+06         7.07247e+08
   16.71             18970.3             311.964         3.64429e+06         7.01646e+08
   16.73             18819.2             309.687         3.61539e+06         6.96106e+08
   16.75             18669.7             307.444         3.58679e+06         6.90626e+08
   16.77             18521.8             305.233          3.5585e+06         6.85204e+08
   16.79             18375.5             303.053         3.53052e+06         6.79841e+08
   16.81             18230.8             300.904         3.50284e+06         6.74534e+08
   16.83             18087.7             298.786         3.47546e+06         6.69285e+08
   16.85             17946.1             296.696         3.44836e+06         6.64091e+08
   16.87               17806             294.634         3.42156e+06         6.58952e+08
   16.89             17667.4               292.6         3.39504e+06         6.53867e+08
   16.91             17530.3             290.592          3.3688e+06         6.48836e+08
   16.93             17394.6             288.611         3.34283e+06         6.43857e+08
   16.95             17260.3             286.655         3.31714e+06         6.38931e+08
   16.97             17127.5             284.724         3.29172e+06         6.34055e+08
   16.99             16996.1             282.817         3.26656e+06         6.29231e+08
   17.01               16866             280.934         3.24167e+06         6.24456e+08
   17.03             16737.3             279.074         3.21703e+06         6.19731e+08
   17.05             16609.9             277.236         3.19265e+06         6.15054e+08
   17.07             16483.9              275.42         3.16851e+06         6.10426e+08
   17.09             16359.1             273.626         3.14463e+06         6.05844e+08
   17.11             16235.7             271.853         3.12099e+06          6.0131e+08
   17.13             16113.5               270.1         3.09759e+06         5.96821e+08
   17.15             15992.5             268.367         3.07444e+06         5.92378e+08
   17.17             15872.8             266.654         3.05151e+06          5.8798e+08
   17.19             15754.3              264.96         3.02882e+06         5.83627e+08
   17.21               15637             263.285         3.00636e+06         5.79317e+08
   17.23             15520.9             261.628         2.98412e+06          5.7505e+08
   17.25             15405.9              259.99         2.96211e+06         5.70826e+08
   17.27             15292.1             258.369         2.94031e+06         5.66644e+08
   17.29             15179.5             256.765         2.91874e+06         5.62503e+08
   17.31               15068             255.178         2.89738e+06         5.58404e+08
   17.33             14957.6             253.608         2.87623e+06         5.54345e+08
   17.35             14848.2             252.054         2.85529e+06         5.50326e+08
   17.37               14740             250.516         2.83455e+06         5.46347e+08
   17.39             14632.8             248.994         2.81402e+06         5.42406e+08
   17.41             14526.7             247.487          2.7937e+06         5.38504e+08
   17.43             14421.7             245.995         2.77357e+06          5.3464e+08
   17.45             14317.6             244.518         2.75363e+06         5.30814e+08
   17.47             14214.6             243.056         2.73389e+06         5.27024e+08
   17.49             14112.6             241.608         2.71434e+06         5.23272e+08
   17.51             14011.6             240.174         2.69499e+06         5.19555e+08
   17.53             13911.5             238.753         2.67581e+06         5.15874e+08
   17.55             13812.4             237.346         2.65683e+06         5.12228e+08
   17.57             13714.3             235.953         2.63802e+06         5.08618e+08
   17.59             13617.1             234.573         2.61939e+06         5.05041e+08
   17.61             13520.8             233.205         2.60095e+06         5.01499e+08
   17.63             13425.5             231.851         2.58267e+06          4.9799e+08
   17.65             13331.1             230.508         2.56457e+06         4.94514e+08
   17.67             13237.5             229.178         2.54665e+06         4.91071e+08
   17.69             13144.9              227.86         2.52889e+06         4.87661e+08
   17.71             13053.1             226.554          2.5113e+06         4.84282e+08
   17.73             12962.2              225.26         2.49387e+06         4.80935e+08
   17.75             12872.2             223.977         2.47661e+06         4.77619e+08
   17.77             12782.9             222.705          2.4595e+06         4.74334e+08
   17.79             12694.6             221.445         2.44256e+06          4.7108e+08
   17.81               12607             220.195         2.42577e+06         4.67856e+08
   17.83             12520.3             218.957         2.40914e+06         4.64661e+08
   17.85             12434.3             217.729         2.39267e+06         4.61496e+08
   17.87             12349.2             216.511         2.37634e+06          4.5836e+08
   17.89             12264.8             215.304         2.36017e+06         4.55252e+08
   17.91             12181.3             214.107         2.34414e+06         4.52173e+08
   17.93             12098.4              212.92         2.32826e+06         4.49122e+08
   17.95             12016.4             211.744         2.31253e+06         4.46099e+08
   17.97             11935.1             210.576         2.29693e+06         4.43103e+08
   17.99             11854.5             209.419         2.28148e+06         4.40135e+08
   18.01             11774.7             208.271         2.26617e+06         4.37193e+08
   18.03             11695.6             207.133           2.251e+06         4.34277e+08
   18.05             11617.2             206.003         2.23597e+06         4.31388e+08
   18.07             11539.5             204.883         2.22106e+06         4.28524e+08
   18.09             11462.5             203.772          2.2063e+06         4.25686e+08
   18.11             11386.2              202.67         2.19166e+06         4.22874e+08
   18.13             11310.6             201.576         2.17716e+06         4.20086e+08
   18.15             11235.6             200.492         2.16278e+06         4.17323e+08
   18.17             11161.4             199.416         2.14853e+06         4.14585e+08
   18.19             11087.7             198.348         2.13441e+06          4.1187e+08
   18.21             11014.8             197.289         2.12041e+06          4.0918e+08
   18.23             10942.5             196.237         2.10654e+06         4.06513e+08
   18.25             10870.8             195.194         2.09279e+06         4.03869e+08
   18.27             10799.7              194.16         2.07916e+06         4.01249e+08
   18.29             10729.3             193.133         2.06564e+06         3.98651e+08
   18.31             10659.5             192.113         2.05225e+06         3.96076e+08
   18.33             10590.3             191.102         2.03897e+06         3.93523e+08
   18.35             10521.7             190.098         2.02581e+06         3.90993e+08
   18.37             10453.7             189.102         2.01276e+06         3.88484e+08
   18.39             10386.2             188.114         1.99982e+06         3.85997e+08
   18.41             10319.4             187.132           1.987e+06         3.83531e+08
   18.43             10253.2             186.159         1.97428e+06         3.81086e+08
   18.45             10187.5             185.192         1.96168e+06         3.78662e+08
   18.47             10122.3             184.232         1.94918e+06         3.76259e+08
   18.49             10057.8              183.28         1.93679e+06         3.73876e+08
   18.51             9993.76             182.334          1.9245e+06         3.71514e+08
   18.53             9930.29             181.396         1.91232e+06         3.69171e+08
   18.55             9867.36             180.464         1.90024e+06         3.66848e+08
   18.57             9804.96             179.539         1.88827e+06         3.64545e+08
   18.59              9743.1             178.621         1.87639e+06         3.62261e+08
   18.61             9681.75             177.709         1.86462e+06         3.59997e+08
   18.63             9620.92             176.804         1.85294e+06         3.57751e+08
   18.65              9560.6             175.905         1.84136e+06         3.55524e+08
   18.67             9500.79             175.013         1.82988e+06         3.53316e+08
   18.69             9441.48             174.127          1.8185e+06         3.51126e+08
   18.71             9382.66             173.248          1.8072e+06         3.48954e+08
   18.73             9324.34             172.374         1.79601e+06           3.468e+08
   18.75             9266.49             171.507          1.7849e+06         3.44664e+08
   18.77             9209.13             170.646         1.77389e+06         3.42545e+08
   18.79             9152.24              169.79         1.76297e+06         3.40444e+08
   18.81             9095.82             168.941         1.75214e+06          3.3836e+08
   18.83             9039.87             168.098         1.74139e+06         3.36293e+08
   18.85             8984.38              167.26         1.73074e+06         3.34243e+08
   18.87             8929.34             166.428         1.72017e+06          3.3221e+08
   18.89             8874.75             165.602         1.70969e+06         3.30193e+08
   18.91              8820.6             164.782         1.69929e+06         3.28193e+08
   18.93              8766.9             163.967         1.68898e+06         3.26209e+08
   18.95             8713.63             163.158         1.67875e+06          3.2424e+08
   18.97              8660.8             162.354          1.6686e+06         3.22288e+08
   18.99             8608.39             161.556         1.65854e+06         3.20351e+08
   19.01              8556.4             160.763         1.64856e+06          3.1843e+08
   19.03             8504.84             159.975         1.63865e+06         3.16524e+08
   19.05             8453.68             159.193         1.62883e+06         3.14634e+08
   19.07             8402.94             158.416         1.61908e+06         3.12758e+08
   19.09             8352.61             157.644         1.60942e+06         3.10898e+08
   19.11             8302.67             156.877         1.59983e+06         3.09052e+08
   19.13             8253.14             156.115         1.59031e+06         3.07221e+08
   19.15             8203.99             155.359         1.58087e+06         3.05404e+08
   19.17             8155.24             154.607         1.57151e+06         3.03602e+08
   19.19             8106.87              153.86         1.56222e+06         3.01813e+08
   19.21             8058.89             153.119           1.553e+06         3.00039e+08
   19.23             8011.28             152.382         1.54386e+06         2.98279e+08
   19.25             7964.05              151.65         1.53478e+06         2.96532e+08
   19.27             7917.19             150.922         1.52578e+06         2.94799e+08
   19.29             7870.69               150.2         1.51685e+06          2.9308e+08
   19.31             7824.56             149.482         1.50799e+06         2.91374e+08
   19.33             7778.79             148.768         1.49919e+06         2.89681e+08
   19.35             7733.37             148.059         1.49047e+06         2.88001e+08
   19.37             7688.31             147.355         1.48181e+06         2.86334e+08
   19.39              7643.6             146.656         1.47322e+06          2.8468e+08
   19.41             7599.23              145.96          1.4647e+06         2.83039e+08
   19.43             7555.21              145.27         1.45624e+06          2.8141e+08
   19.45             7511.52             144.583         1.44784e+06         2.79794e+08
   19.47             7468.17             143.901         1.43951e+06          2.7819e+08
   19.49             7425.15             143.224         1.43125e+06         2.76599e+08
   19.51             7382.46              142.55         1.42304e+06         2.75019e+08
   19.53              7340.1             141.881          1.4149e+06         2.73452e+08
   19.55             7298.06             141.216         1.40683e+06         2.71896e+08
   19.57             7256.34             140.555         1.39881e+06         2.70352e+08
   19.59             7214.94             139.899         1.39085e+06          2.6882e+08
   19.61             7173.85             139.246         1.38296e+06         2.67299e+08
   19.63             7133.07             138.598         1.37512e+06          2.6579e+08
   19.65              7092.6             137.953         1.36734e+06         2.64292e+08
   19.67             7052.43             137.313         1.35962e+06         2.62805e+08
   19.69             7012.57             136.676         1.35196e+06         2.61329e+08
   19.71                6973             136.044         1.34436e+06         2.59865e+08
   19.73             6933.73             135.415         1.33681e+06         2.58411e+08
   19.75             6894.75             134.791         1.32932e+06         2.56968e+08
   19.77             6856.07              134.17         1.32188e+06         2.55536e+08
   19.79             6817.67             133.553          1.3145e+06         2.54114e+08
   19.81             6779.56             132.939         1.30718e+06         2.52703e+08
   19.83             6741.73              132.33          1.2999e+06         2.51302e+08
   19.85             6704.18             131.724         1.29269e+06         2.49911e+08
   19.87             6666.91             131.121         1.28552e+06         2.48531e+08
   19.89             6629.91             130.523         1.27841e+06         2.47161e+08
   19.91             6593.18             129.928         1.27135e+06         2.45801e+08
   19.93             6556.73             129.337         1.26434e+06         2.44451e+08
   19.95             6520.54             128.749         1.25738e+06          2.4311e+08
   19.97             6484.61             128.165         1.25048e+06          2.4178e+08
   19.99             6448.95             127.584         1.24362e+06         2.40459e+08
   20.01             6413.55             127.007         1.23681e+06         2.39147e+08
