## w(eV)         sigma(Sm^-1)     kappa(W(mK)^-1)        L12/e(Am^-1)      L22/e^2(Wm^-1)
    0.01         2.92862e+06             204.221          3.4321e+09         4.02214e+12
    0.03         2.93063e+06             204.057         3.43446e+09          4.0249e+12
    0.05         2.93466e+06             203.731         3.43918e+09         4.03043e+12
    0.07         2.94071e+06             203.251         3.44627e+09         4.03875e+12
    0.09         2.94881e+06             202.627         3.45576e+09         4.04986e+12
    0.11         2.95897e+06              201.87         3.46766e+09         4.06382e+12
    0.13         2.97122e+06             200.996         3.48202e+09         4.08064e+12
    0.15         2.98558e+06             200.021         3.49885e+09         4.10036e+12
    0.17         3.00209e+06             198.962          3.5182e+09         4.12304e+12
    0.19         3.02079e+06             197.837         3.54011e+09         4.14872e+12
    0.21         3.04171e+06             196.665         3.56463e+09         4.17745e+12
    0.23          3.0649e+06             195.464          3.5918e+09         4.20929e+12
    0.25         3.09038e+06             194.251         3.62167e+09         4.24429e+12
    0.27         3.11821e+06              193.04         3.65428e+09         4.28251e+12
    0.29         3.14843e+06             191.847         3.68969e+09         4.32401e+12
    0.31         3.18107e+06             190.684         3.72794e+09         4.36884e+12
    0.33         3.21617e+06             189.561         3.76908e+09         4.41705e+12
    0.35         3.25377e+06             188.487         3.81314e+09         4.46868e+12
    0.37         3.29389e+06             187.469         3.86017e+09         4.52379e+12
    0.39         3.33656e+06             186.513         3.91017e+09          4.5824e+12
    0.41          3.3818e+06             185.621         3.96319e+09         4.64452e+12
    0.43          3.4296e+06             184.797         4.01921e+09         4.71018e+12
    0.45         3.47996e+06             184.041         4.07823e+09         4.77935e+12
    0.47         3.53287e+06             183.354         4.14023e+09         4.85201e+12
    0.49         3.58827e+06             182.734         4.20516e+09         4.92811e+12
    0.51         3.64611e+06             182.179         4.27295e+09         5.00755e+12
    0.53          3.7063e+06             181.689         4.34348e+09         5.09022e+12
    0.55         3.76872e+06             181.259         4.41664e+09         5.17595e+12
    0.57         3.83321e+06             180.888         4.49223e+09         5.26454e+12
    0.59         3.89959e+06             180.573         4.57002e+09         5.35571e+12
    0.61         3.96761e+06              180.31         4.64973e+09         5.44913e+12
    0.63         4.03697e+06             180.096         4.73103e+09         5.54441e+12
    0.65         4.10733e+06             179.928         4.81348e+09         5.64104e+12
    0.67         4.17825e+06             179.803          4.8966e+09         5.73845e+12
    0.69         4.24925e+06             179.719         4.97981e+09         5.83597e+12
    0.71         4.31975e+06             179.672         5.06244e+09         5.93281e+12
    0.73         4.38912e+06             179.659         5.14373e+09         6.02808e+12
    0.75          4.4566e+06             179.679         5.22282e+09         6.12077e+12
    0.77         4.52139e+06             179.728         5.29875e+09         6.20976e+12
    0.79         4.58259e+06             179.804         5.37047e+09         6.29382e+12
    0.81         4.63923e+06             179.905         5.43685e+09         6.37162e+12
    0.83         4.69028e+06             180.029         5.49669e+09         6.44174e+12
    0.85         4.73469e+06             180.173         5.54873e+09         6.50273e+12
    0.87         4.77135e+06             180.337          5.5917e+09         6.55309e+12
    0.89         4.79919e+06             180.518         5.62433e+09         6.59133e+12
    0.91         4.81718e+06             180.715          5.6454e+09         6.61603e+12
    0.93         4.82434e+06             180.925          5.6538e+09         6.62587e+12
    0.95         4.81984e+06             181.148         5.64853e+09         6.61969e+12
    0.97         4.80299e+06             181.382         5.62878e+09         6.59654e+12
    0.99         4.77329e+06             181.625         5.59396e+09         6.55574e+12
    1.01         4.73045e+06             181.876         5.54376e+09          6.4969e+12
    1.03         4.67445e+06             182.135         5.47812e+09         6.41997e+12
    1.05         4.60549e+06             182.399         5.39731e+09         6.32526e+12
    1.07         4.52407e+06             182.667         5.30188e+09         6.21341e+12
    1.09         4.43089e+06             182.939         5.19267e+09         6.08543e+12
    1.11          4.3269e+06             183.212         5.07079e+09         5.94258e+12
    1.13         4.21322e+06             183.487         4.93756e+09         5.78644e+12
    1.15         4.09113e+06             183.761         4.79448e+09         5.61874e+12
    1.17         3.96201e+06             184.034         4.64314e+09         5.44138e+12
    1.19         3.82727e+06             184.305         4.48524e+09         5.25632e+12
    1.21         3.68837e+06             184.572         4.32244e+09         5.06552e+12
    1.23         3.54669e+06             184.834         4.15639e+09         4.87091e+12
    1.25         3.40356e+06             185.091         3.98865e+09         4.67432e+12
    1.27         3.26023e+06             185.341         3.82066e+09         4.47744e+12
    1.29         3.11779e+06             185.583         3.65372e+09         4.28179e+12
    1.31         2.97723e+06             185.816         3.48899e+09         4.08872e+12
    1.33         2.83938e+06             186.039         3.32744e+09         3.89938e+12
    1.35         2.70496e+06             186.251         3.16989e+09         3.71474e+12
    1.37         2.57453e+06             186.451         3.01702e+09         3.53558e+12
    1.39         2.44852e+06             186.638         2.86935e+09          3.3625e+12
    1.41         2.32728e+06             186.811         2.72725e+09         3.19596e+12
    1.43         2.21101e+06             186.968         2.59099e+09         3.03626e+12
    1.45         2.09987e+06             187.109         2.46072e+09         2.88359e+12
    1.47          1.9939e+06             187.232         2.33653e+09         2.73804e+12
    1.49          1.8931e+06             187.337         2.21839e+09         2.59958e+12
    1.51         1.79741e+06             187.422         2.10624e+09         2.46814e+12
    1.53         1.70673e+06             187.486         1.99996e+09         2.34359e+12
    1.55         1.62092e+06             187.529          1.8994e+09         2.22572e+12
    1.57         1.53983e+06             187.549         1.80436e+09         2.11434e+12
    1.59         1.46327e+06             187.545         1.71464e+09         2.00918e+12
    1.61         1.39106e+06             187.516            1.63e+09         1.90999e+12
    1.63         1.32299e+06             187.462         1.55023e+09         1.81649e+12
    1.65         1.25887e+06              187.38         1.47508e+09         1.72842e+12
    1.67         1.19849e+06             187.271         1.40431e+09         1.64548e+12
    1.69         1.14166e+06             187.133          1.3377e+09         1.56741e+12
    1.71         1.08817e+06             186.965         1.27501e+09         1.49393e+12
    1.73         1.03783e+06             186.766         1.21602e+09          1.4248e+12
    1.75              990473             186.536         1.16051e+09         1.35974e+12
    1.77              945908             186.274         1.10828e+09         1.29852e+12
    1.79              903973             185.979         1.05913e+09         1.24092e+12
    1.81              864507              185.65         1.01288e+09         1.18671e+12
    1.83              827359             185.286         9.69337e+08         1.13568e+12
    1.85              792385             184.887         9.28347e+08         1.08764e+12
    1.87              759452             184.452         8.89748e+08          1.0424e+12
    1.89              728431              183.98         8.53391e+08         9.99788e+11
    1.91              699205             183.471         8.19136e+08          9.5964e+11
    1.93              671660             182.925         7.86852e+08         9.21801e+11
    1.95              645691             182.342         7.56416e+08         8.86129e+11
    1.97              621202             181.719         7.27713e+08         8.52488e+11
    1.99              598100             181.059         7.00636e+08         8.20752e+11
    2.01              576298              180.36         6.75084e+08         7.90803e+11
    2.03              555718             179.621         6.50962e+08         7.62531e+11
    2.05              536283             178.844         6.28183e+08         7.35832e+11
    2.07              517925             178.028         6.06666e+08         7.10612e+11
    2.09              500577             177.173         5.86332e+08          6.8678e+11
    2.11              484179              176.28         5.67112e+08         6.64252e+11
    2.13              468673             175.347         5.48938e+08          6.4295e+11
    2.15              454007             174.377         5.31748e+08         6.22801e+11
    2.17              440131             173.369         5.15483e+08         6.03737e+11
    2.19              426998             172.323          5.0009e+08         5.85694e+11
    2.21              414566              171.24         4.85518e+08         5.68614e+11
    2.23              402794             170.121         4.71719e+08         5.52439e+11
    2.25              391644             168.966         4.58649e+08         5.37119e+11
    2.27              381081             167.776         4.46267e+08         5.22605e+11
    2.29              371071             166.552         4.34534e+08         5.08852e+11
    2.31              361585             165.294         4.23414e+08         4.95817e+11
    2.33              352593             164.004         4.12874e+08         4.83461e+11
    2.35              344068             162.682          4.0288e+08         4.71747e+11
    2.37              335985              161.33         3.93405e+08         4.60639e+11
    2.39              328320             159.949          3.8442e+08         4.50106e+11
    2.41              321052             158.539         3.75899e+08         4.40118e+11
    2.43              314159             157.102         3.67819e+08         4.30645e+11
    2.45              307622             155.638         3.60155e+08          4.2166e+11
    2.47              301423             154.151         3.52888e+08          4.1314e+11
    2.49              295545              152.64         3.45996e+08          4.0506e+11
    2.51              289971             151.106         3.39462e+08         3.97399e+11
    2.53              284688             149.552         3.33267e+08         3.90136e+11
    2.55              279679             147.979         3.27394e+08         3.83251e+11
    2.57              274934             146.387          3.2183e+08         3.76726e+11
    2.59              270438             144.779         3.16558e+08         3.70544e+11
    2.61              266180             143.156         3.11565e+08          3.6469e+11
    2.63              262149             141.519         3.06839e+08         3.59147e+11
    2.65              258336             139.869         3.02367e+08         3.53903e+11
    2.67              254730             138.209         2.98138e+08         3.48943e+11
    2.69              251322             136.538          2.9414e+08         3.44255e+11
    2.71              248103              134.86         2.90365e+08         3.39827e+11
    2.73              245066             133.175         2.86803e+08         3.35649e+11
    2.75              242203             131.484         2.83445e+08         3.31709e+11
    2.77              239507             129.789         2.80282e+08         3.27999e+11
    2.79              236971             128.092         2.77306e+08         3.24508e+11
    2.81              234588             126.392         2.74511e+08         3.21228e+11
    2.83              232354             124.693         2.71889e+08         3.18151e+11
    2.85              230262             122.994         2.69433e+08          3.1527e+11
    2.87              228307             121.298         2.67139e+08         3.12576e+11
    2.89              226484             119.605         2.64999e+08         3.10064e+11
    2.91              224788             117.916         2.63008e+08         3.07727e+11
    2.93              223216             116.233         2.61162e+08         3.05559e+11
    2.95              221763             114.556         2.59455e+08         3.03554e+11
    2.97              220424             112.887         2.57883e+08         3.01707e+11
    2.99              219198             111.226         2.56442e+08         3.00014e+11
    3.01              218080             109.575         2.55127e+08         2.98469e+11
    3.03              217067             107.934         2.53936e+08         2.97068e+11
    3.05              216156             106.304         2.52864e+08         2.95807e+11
    3.07              215344             104.686         2.51909e+08         2.94683e+11
    3.09              214629             103.081         2.51067e+08         2.93691e+11
    3.11              214009              101.49         2.50336e+08         2.92829e+11
    3.13              213481             99.9119         2.49712e+08         2.92093e+11
    3.15              213043             98.3489         2.49195e+08         2.91481e+11
    3.17              212693             96.8012          2.4878e+08          2.9099e+11
    3.19              212430             95.2693         2.48467e+08         2.90618e+11
    3.21              212251             93.7537         2.48253e+08         2.90361e+11
    3.23              212156             92.2548         2.48137e+08         2.90219e+11
    3.25              212143             90.7731         2.48116e+08          2.9019e+11
    3.27              212211              89.309          2.4819e+08         2.90271e+11
    3.29              212358             87.8628         2.48358e+08         2.90461e+11
    3.31              212584             86.4348         2.48617e+08         2.90759e+11
    3.33              212888             85.0253         2.48968e+08         2.91163e+11
    3.35              213268             83.6346         2.49409e+08         2.91674e+11
    3.37              213726             82.2629         2.49939e+08         2.92289e+11
    3.39              214259             80.9103         2.50558e+08         2.93007e+11
    3.41              214867              79.577         2.51265e+08          2.9383e+11
    3.43              215551             78.2631         2.52061e+08         2.94755e+11
    3.45              216310             76.9688         2.52944e+08         2.95782e+11
    3.47              217143              75.694         2.53914e+08         2.96912e+11
    3.49              218051              74.439         2.54972e+08         2.98145e+11
    3.51              219034             73.2036         2.56117e+08         2.99479e+11
    3.53              220092             71.9879         2.57351e+08         3.00917e+11
    3.55              221226              70.792         2.58672e+08         3.02458e+11
    3.57              222434             69.6156         2.60082e+08         3.04102e+11
    3.59              223720             68.4589         2.61581e+08          3.0585e+11
    3.61              225081             67.3217          2.6317e+08         3.07703e+11
    3.63              226521             66.2039         2.64849e+08         3.09662e+11
    3.65              228038             65.1055         2.66619e+08         3.11728e+11
    3.67              229634             64.0264         2.68482e+08         3.13903e+11
    3.69              231311             62.9664         2.70439e+08         3.16186e+11
    3.71              233068             61.9253          2.7249e+08         3.18581e+11
    3.73              234908             60.9031         2.74638e+08         3.21087e+11
    3.75              236831             59.8996         2.76883e+08         3.23709e+11
    3.77              238839             58.9145         2.79227e+08         3.26446e+11
    3.79              240933             57.9479         2.81673e+08         3.29302e+11
    3.81              243116             56.9993         2.84222e+08         3.32278e+11
    3.83              245389             56.0688         2.86876e+08         3.35377e+11
    3.85              247753              55.156         2.89637e+08         3.38601e+11
    3.87              250211             54.2608         2.92508e+08         3.41954e+11
    3.89              252766              53.383         2.95491e+08         3.45438e+11
    3.91              255418             52.5223         2.98588e+08         3.49056e+11
    3.93              258171             51.6787         3.01804e+08         3.52812e+11
    3.95              261027             50.8517          3.0514e+08         3.56708e+11
    3.97              263990             50.0413           3.086e+08          3.6075e+11
    3.99              267061             49.2472         3.12188e+08         3.64941e+11
    4.01              270244             48.4692         3.15906e+08         3.69284e+11
    4.03              273542              47.707         3.19759e+08         3.73785e+11
    4.05              276959             46.9605         3.23751e+08         3.78448e+11
    4.07              280498             46.2295         3.27885e+08         3.83278e+11
    4.09              284163             45.5136         3.32167e+08          3.8828e+11
    4.11              287959             44.8127         3.36601e+08          3.9346e+11
    4.13              291888             44.1267         3.41192e+08         3.98824e+11
    4.15              295957             43.4551         3.45945e+08         4.04377e+11
    4.17              300169             42.7979         3.50866e+08         4.10127e+11
    4.19              304529             42.1549         3.55961e+08         4.16079e+11
    4.21              309044             41.5257         3.61236e+08         4.22242e+11
    4.23              313718             40.9103         3.66697e+08         4.28622e+11
    4.25              318557             40.3084         3.72351e+08         4.35228e+11
    4.27              323568             39.7197         3.78205e+08         4.42069e+11
    4.29              328756             39.1442         3.84267e+08         4.49152e+11
    4.31              334130             38.5815         3.90546e+08         4.56488e+11
    4.33              339695             38.0316         3.97049e+08         4.64086e+11
    4.35              345460             37.4942         4.03785e+08         4.71957e+11
    4.37              351433             36.9691         4.10764e+08         4.80111e+11
    4.39              357622             36.4561         4.17995e+08         4.88561e+11
    4.41              364036             35.9551          4.2549e+08         4.97319e+11
    4.43              370684             35.4659         4.33259e+08         5.06396e+11
    4.45              377578             34.9884         4.41313e+08         5.15808e+11
    4.47              384726             34.5222         4.49666e+08         5.25568e+11
    4.49              392140             34.0674          4.5833e+08         5.35692e+11
    4.51              399832             33.6237         4.67319e+08         5.46195e+11
    4.53              407815              33.191         4.76646e+08         5.57095e+11
    4.55              416101             32.7691         4.86329e+08         5.68409e+11
    4.57              424704             32.3578         4.96381e+08         5.80156e+11
    4.59              433638             31.9571         5.06822e+08         5.92356e+11
    4.61              442920             31.5669         5.17668e+08          6.0503e+11
    4.63              452565             31.1869         5.28938e+08           6.182e+11
    4.65              462590              30.817         5.40653e+08          6.3189e+11
    4.67              473014             30.4572         5.52834e+08         6.46123e+11
    4.69              483855             30.1073         5.65503e+08         6.60928e+11
    4.71              495135             29.7671         5.78683e+08          6.7633e+11
    4.73              506873             29.4367           5.924e+08         6.92359e+11
    4.75              519093             29.1159          6.0668e+08         7.09046e+11
    4.77              531818             28.8046          6.2155e+08         7.26423e+11
    4.79              545074             28.5027         6.37041e+08         7.44524e+11
    4.81              558886             28.2101         6.53181e+08         7.63386e+11
    4.83              573283             27.9268         6.70005e+08         7.83045e+11
    4.85              588293             27.6526         6.87545e+08         8.03543e+11
    4.87              603948             27.3876         7.05839e+08          8.2492e+11
    4.89              620279             27.1316         7.24923e+08         8.47221e+11
    4.91              637320             26.8845         7.44837e+08         8.70493e+11
    4.93              655107             26.6464         7.65622e+08         8.94782e+11
    4.95              673676             26.4172         7.87322e+08          9.2014e+11
    4.97              693066             26.1969         8.09981e+08         9.46619e+11
    4.99              713318             25.9853         8.33647e+08         9.74275e+11
    5.01              734472             25.7825         8.58367e+08         1.00316e+12
    5.03              756571             25.5885         8.84193e+08         1.03334e+12
    5.05              779660             25.4032         9.11174e+08         1.06487e+12
    5.07              803784             25.2267         9.39364e+08         1.09781e+12
    5.09              828988             25.0588         9.68817e+08         1.13223e+12
    5.11              855318             24.8997         9.99586e+08         1.16819e+12
    5.13              882820             24.7493         1.03173e+09         1.20575e+12
    5.15              911541             24.6076         1.06529e+09         1.24497e+12
    5.17              941523             24.4746         1.10032e+09         1.28591e+12
    5.19              972809             24.3504         1.13689e+09         1.32864e+12
    5.21         1.00544e+06              24.235         1.17501e+09         1.37319e+12
    5.23         1.03944e+06             24.1283         1.21475e+09         1.41963e+12
    5.25         1.07485e+06             24.0305         1.25613e+09         1.46799e+12
    5.27         1.11169e+06             23.9416         1.29918e+09         1.51829e+12
    5.29         1.14997e+06             23.8616         1.34391e+09         1.57056e+12
    5.31         1.18968e+06             23.7905         1.39032e+09          1.6248e+12
    5.33         1.23082e+06             23.7284         1.43839e+09         1.68098e+12
    5.35         1.27335e+06             23.6753         1.48809e+09         1.73905e+12
    5.37         1.31722e+06             23.6314         1.53936e+09         1.79896e+12
    5.39         1.36236e+06             23.5965         1.59211e+09          1.8606e+12
    5.41         1.40865e+06             23.5708         1.64621e+09         1.92383e+12
    5.43         1.45598e+06             23.5543         1.70152e+09         1.98846e+12
    5.45         1.50417e+06             23.5471         1.75783e+09         2.05427e+12
    5.47         1.55302e+06             23.5492         1.81491e+09         2.12097e+12
    5.49         1.60227e+06             23.5605         1.87247e+09         2.18824e+12
    5.51         1.65164e+06             23.5812         1.93017e+09         2.25566e+12
    5.53         1.70079e+06             23.6113         1.98761e+09         2.32278e+12
    5.55         1.74935e+06             23.6506         2.04435e+09         2.38909e+12
    5.57         1.79689e+06             23.6993          2.0999e+09         2.45402e+12
    5.59         1.84295e+06             23.7572         2.15373e+09         2.51692e+12
    5.61         1.88705e+06             23.8244         2.20526e+09         2.57714e+12
    5.63         1.92866e+06             23.9007          2.2539e+09         2.63397e+12
    5.65         1.96728e+06              23.986         2.29902e+09         2.68671e+12
    5.67         2.00238e+06             24.0802         2.34004e+09         2.73465e+12
    5.69         2.03347e+06             24.1831         2.37638e+09         2.77711e+12
    5.71          2.0601e+06             24.2945          2.4075e+09         2.81349e+12
    5.73         2.08188e+06             24.4141         2.43295e+09         2.84323e+12
    5.75         2.09848e+06             24.5415         2.45235e+09          2.8659e+12
    5.77         2.10967e+06             24.6765         2.46543e+09         2.88119e+12
    5.79         2.11533e+06             24.8185         2.47205e+09         2.88893e+12
    5.81         2.11545e+06             24.9671         2.47219e+09          2.8891e+12
    5.83         2.11012e+06             25.1217         2.46597e+09         2.88183e+12
    5.85         2.09954e+06             25.2816         2.45362e+09          2.8674e+12
    5.87         2.08404e+06             25.4461          2.4355e+09         2.84624e+12
    5.89         2.06399e+06             25.6143         2.41208e+09         2.81888e+12
    5.91         2.03989e+06             25.7853         2.38392e+09         2.78597e+12
    5.93         2.01225e+06             25.9581         2.35162e+09         2.74824e+12
    5.95         1.98163e+06             26.1316         2.31585e+09         2.70644e+12
    5.97         1.94863e+06             26.3046         2.27729e+09         2.66139e+12
    5.99         1.91381e+06             26.4756         2.23662e+09         2.61386e+12
    6.01         1.87776e+06             26.6434         2.19449e+09         2.56465e+12
    6.03         1.84101e+06             26.8064         2.15156e+09         2.51448e+12
    6.05         1.80407e+06              26.963         2.10839e+09         2.46405e+12
    6.07          1.7674e+06             27.1115         2.06555e+09         2.41399e+12
    6.09         1.73142e+06             27.2503         2.02351e+09         2.36487e+12
    6.11         1.69649e+06             27.3775          1.9827e+09         2.31719e+12
    6.13         1.66293e+06             27.4914         1.94349e+09         2.27138e+12
    6.15         1.63101e+06             27.5901          1.9062e+09         2.22782e+12
    6.17         1.60096e+06              27.672         1.87109e+09         2.18681e+12
    6.19         1.57297e+06             27.7352         1.83839e+09          2.1486e+12
    6.21         1.54718e+06             27.7781         1.80826e+09         2.11341e+12
    6.23         1.52371e+06             27.7992         1.78085e+09         2.08138e+12
    6.25         1.50265e+06              27.797         1.75624e+09         2.05264e+12
    6.27         1.48404e+06             27.7703         1.73452e+09         2.02727e+12
    6.29         1.46794e+06             27.7181         1.71572e+09         2.00531e+12
    6.31         1.45436e+06             27.6395         1.69985e+09         1.98679e+12
    6.33         1.44328e+06             27.5338         1.68692e+09         1.97169e+12
    6.35          1.4347e+06             27.4008          1.6769e+09            1.96e+12
    6.37         1.42856e+06             27.2403         1.66975e+09         1.95165e+12
    6.39         1.42482e+06             27.0524         1.66538e+09         1.94657e+12
    6.41          1.4234e+06             26.8377         1.66374e+09         1.94466e+12
    6.43          1.4242e+06             26.5967          1.6647e+09          1.9458e+12
    6.45         1.42713e+06             26.3304         1.66813e+09         1.94983e+12
    6.47         1.43205e+06               26.04          1.6739e+09         1.95659e+12
    6.49         1.43882e+06             25.7267         1.68182e+09         1.96586e+12
    6.51         1.44724e+06             25.3922         1.69168e+09         1.97741e+12
    6.53         1.45713e+06             25.0382         1.70325e+09         1.99095e+12
    6.55         1.46826e+06             24.6663         1.71627e+09         2.00618e+12
    6.57         1.48035e+06             24.2785         1.73042e+09         2.02274e+12
    6.59         1.49314e+06             23.8768         1.74538e+09         2.04023e+12
    6.61         1.50629e+06             23.4631         1.76077e+09         2.05823e+12
    6.63         1.51947e+06             23.0393         1.77618e+09         2.07627e+12
    6.65         1.53231e+06             22.6074          1.7912e+09         2.09383e+12
    6.67         1.54441e+06             22.1693         1.80536e+09         2.11039e+12
    6.69         1.55538e+06             21.7266         1.81819e+09          2.1254e+12
    6.71          1.5648e+06             21.2813         1.82921e+09          2.1383e+12
    6.73         1.57229e+06             20.8348         1.83797e+09         2.14854e+12
    6.75         1.57744e+06             20.3886           1.844e+09         2.15561e+12
    6.77         1.57992e+06             19.9442         1.84691e+09         2.15901e+12
    6.79         1.57941e+06             19.5027         1.84631e+09         2.15831e+12
    6.81         1.57564e+06             19.0653         1.84191e+09         2.15318e+12
    6.83         1.56843e+06              18.633         1.83349e+09         2.14334e+12
    6.85         1.55766e+06             18.2067          1.8209e+09         2.12863e+12
    6.87         1.54327e+06             17.7871         1.80409e+09         2.10898e+12
    6.89         1.52532e+06              17.375          1.7831e+09         2.08445e+12
    6.91          1.5039e+06             16.9708         1.75806e+09         2.05518e+12
    6.93         1.47919e+06              16.575         1.72919e+09         2.02143e+12
    6.95         1.45146e+06             16.1881         1.69676e+09         1.98353e+12
    6.97         1.42097e+06             15.8102         1.66113e+09         1.94188e+12
    6.99         1.38808e+06             15.4417         1.62268e+09         1.89693e+12
    7.01         1.35314e+06             15.0826         1.58183e+09         1.84918e+12
    7.03         1.31651e+06              14.733         1.53902e+09         1.79912e+12
    7.05         1.27857e+06              14.393         1.49467e+09         1.74728e+12
    7.07         1.23968e+06             14.0626          1.4492e+09         1.69413e+12
    7.09         1.20019e+06             13.7418         1.40303e+09         1.64015e+12
    7.11         1.16039e+06             13.4304         1.35651e+09         1.58577e+12
    7.13         1.12059e+06             13.1283         1.30999e+09         1.53138e+12
    7.15         1.08105e+06             12.8354         1.26375e+09         1.47734e+12
    7.17         1.04197e+06             12.5515         1.21807e+09         1.42393e+12
    7.19         1.00355e+06             12.2765         1.17315e+09         1.37142e+12
    7.21              965941             12.0102         1.12919e+09         1.32003e+12
    7.23              929277             11.7524         1.08633e+09         1.26993e+12
    7.25              893654             11.5028         1.04469e+09         1.22124e+12
    7.27              859145             11.2612         1.00434e+09         1.17408e+12
    7.29              825802             11.0275         9.65365e+08         1.12851e+12
    7.31              793660             10.8014          9.2779e+08         1.08459e+12
    7.33              762736             10.5827         8.91638e+08         1.04233e+12
    7.35              733032             10.3712         8.56915e+08         1.00173e+12
    7.37              704543             10.1666          8.2361e+08         9.62798e+11
    7.39              677251             9.96877         7.91704e+08           9.255e+11
    7.41              651131             9.77746          7.6117e+08         8.89804e+11
    7.43              626155             9.59247         7.31972e+08         8.55671e+11
    7.45              602288              9.4136         7.04071e+08         8.23055e+11
    7.47              579494             9.24065         6.77424e+08         7.91903e+11
    7.49              557732             9.07344         6.51984e+08         7.62163e+11
    7.51              536963             8.91176         6.27704e+08         7.33779e+11
    7.53              517145             8.75546         6.04536e+08         7.06695e+11
    7.55              498236             8.60434         5.82432e+08         6.80855e+11
    7.57              480197             8.45825         5.61343e+08         6.56202e+11
    7.59              462985             8.31701         5.41223e+08         6.32681e+11
    7.61              446563             8.18048         5.22025e+08         6.10238e+11
    7.63              430892             8.04851         5.03705e+08         5.88821e+11
    7.65              415934             7.92096         4.86219e+08         5.68381e+11
    7.67              401655             7.79767         4.69526e+08         5.48867e+11
    7.69              388020             7.67854         4.53587e+08         5.30233e+11
    7.71              374996             7.56342         4.38362e+08         5.12435e+11
    7.73              362553             7.45221         4.23816e+08          4.9543e+11
    7.75              350661             7.34478         4.09913e+08         4.79178e+11
    7.77              339291             7.24104         3.96621e+08          4.6364e+11
    7.79              328416             7.14087         3.83909e+08         4.48779e+11
    7.81              318012             7.04419         3.71746e+08          4.3456e+11
    7.83              308054             6.95089         3.60105e+08         4.20952e+11
    7.85              298519              6.8609         3.48959e+08         4.07921e+11
    7.87              289386             6.77413         3.38282e+08          3.9544e+11
    7.89              280634              6.6905         3.28051e+08         3.83481e+11
    7.91              272244             6.60996         3.18244e+08         3.72016e+11
    7.93              264199             6.53242         3.08838e+08         3.61021e+11
    7.95              256480             6.45783         2.99815e+08         3.50472e+11
    7.97              249071             6.38612         2.91154e+08         3.40348e+11
    7.99              241958             6.31726         2.82838e+08         3.30627e+11
    8.01              235125             6.25119         2.74851e+08         3.21289e+11
    8.03              228559             6.18787         2.67175e+08         3.12316e+11
    8.05              222247             6.12726         2.59797e+08         3.03691e+11
    8.07              216177             6.06933         2.52701e+08         2.95395e+11
    8.09              210337             6.01405         2.45874e+08         2.87415e+11
    8.11              204716             5.96138         2.39303e+08         2.79734e+11
    8.13              199304             5.91133         2.32977e+08         2.72339e+11
    8.15              194092             5.86386         2.26884e+08         2.65216e+11
    8.17              189070             5.81896         2.21013e+08         2.58353e+11
    8.19              184229             5.77664         2.15354e+08         2.51738e+11
    8.21              179562             5.73688         2.09898e+08         2.45359e+11
    8.23              175059              5.6997         2.04635e+08         2.39207e+11
    8.25              170715             5.66509         1.99556e+08          2.3327e+11
    8.27              166521             5.63308         1.94654e+08         2.27539e+11
    8.29              162472             5.60368         1.89921e+08         2.22006e+11
    8.31              158561              5.5769         1.85349e+08         2.16661e+11
    8.33              154782             5.55278         1.80931e+08         2.11497e+11
    8.35              151129             5.53135         1.76661e+08         2.06506e+11
    8.37              147598             5.51265         1.72533e+08          2.0168e+11
    8.39              144182             5.49671          1.6854e+08         1.97013e+11
    8.41              140878             5.48358         1.64677e+08         1.92497e+11
    8.43              137680             5.47332         1.60939e+08         1.88127e+11
    8.45              134585             5.46597          1.5732e+08         1.83897e+11
    8.47              131587              5.4616         1.53816e+08         1.79801e+11
    8.49              128684             5.46027         1.50422e+08         1.75833e+11
    8.51              125871             5.46205         1.47134e+08         1.71989e+11
    8.53              123145               5.467         1.43947e+08         1.68264e+11
    8.55              120502              5.4752         1.40858e+08         1.64653e+11
    8.57              117940             5.48672         1.37862e+08         1.61151e+11
    8.59              115454             5.50164         1.34957e+08         1.57754e+11
    8.61              113043             5.52002         1.32138e+08         1.54459e+11
    8.63              110703             5.54194         1.29403e+08         1.51262e+11
    8.65              108432             5.56745         1.26748e+08         1.48159e+11
    8.67              106227             5.59663         1.24171e+08         1.45146e+11
    8.69              104086             5.62951         1.21668e+08          1.4222e+11
    8.71              102006             5.66614         1.19237e+08         1.39378e+11
    8.73             99985.9             5.70651         1.16875e+08         1.36616e+11
    8.75             98022.5             5.75064          1.1458e+08         1.33933e+11
    8.77             96114.1              5.7985         1.12349e+08         1.31325e+11
    8.79             94258.8             5.85001          1.1018e+08          1.2879e+11
    8.81             92454.8             5.90507         1.08071e+08         1.26325e+11
    8.83             90700.1             5.96354          1.0602e+08         1.23927e+11
    8.85             88993.1             6.02522         1.04024e+08         1.21594e+11
    8.87             87332.2             6.08984         1.02083e+08         1.19324e+11
    8.89             85715.7             6.15708         1.00193e+08         1.17115e+11
    8.91             84142.1             6.22654         9.83532e+07         1.14965e+11
    8.93             82609.8             6.29772          9.6562e+07         1.12871e+11
    8.95             81117.5             6.37006         9.48175e+07         1.10831e+11
    8.97             79663.7             6.44289          9.3118e+07         1.08845e+11
    8.99             78247.1             6.51546         9.14619e+07         1.06909e+11
    9.01             76866.3             6.58692         8.98477e+07         1.05022e+11
    9.03             75520.1             6.65634          8.8274e+07         1.03182e+11
    9.05             74207.1             6.72273         8.67391e+07         1.01388e+11
    9.07             72926.3             6.78502         8.52418e+07         9.96372e+10
    9.09             71676.4             6.84211         8.37807e+07         9.79291e+10
    9.11             70456.2             6.89291         8.23543e+07         9.62617e+10
    9.13             69264.8              6.9363         8.09615e+07         9.46335e+10
    9.15               68101             6.97126          7.9601e+07         9.30431e+10
    9.17             66963.8              6.9968         7.82716e+07          9.1489e+10
    9.19             65852.2             7.01209         7.69722e+07         8.99701e+10
    9.21             64765.4             7.01642         7.57018e+07         8.84849e+10
    9.23             63702.5             7.00925         7.44592e+07         8.70324e+10
    9.25             62662.6             6.99024         7.32437e+07         8.56115e+10
    9.27             61645.1             6.95927         7.20543e+07         8.42211e+10
    9.29             60649.2              6.9164         7.08901e+07         8.28603e+10
    9.31             59674.3             6.86194         6.97505e+07         8.15282e+10
    9.33             58719.7             6.79635         6.86348e+07          8.0224e+10
    9.35             57785.1             6.72031         6.75422e+07         7.89469e+10
    9.37             56869.7             6.63464         6.64723e+07         7.76963e+10
    9.39             55973.2             6.54026         6.54244e+07         7.64714e+10
    9.41             55095.2             6.43821         6.43981e+07         7.52718e+10
    9.43             54235.2             6.32959         6.33929e+07         7.40968e+10
    9.45             53392.9              6.2155         6.24083e+07          7.2946e+10
    9.47             52567.8             6.09705         6.14439e+07         7.18187e+10
    9.49             51759.6             5.97534         6.04993e+07         7.07146e+10
    9.51             50968.1             5.85138         5.95741e+07         6.96332e+10
    9.53             50192.7             5.72614         5.86678e+07          6.8574e+10
    9.55             49433.3             5.60049         5.77802e+07         6.75365e+10
    9.57             48689.5             5.47522         5.69108e+07         6.65203e+10
    9.59               47961             5.35102         5.60593e+07          6.5525e+10
    9.61             47247.4             5.22848         5.52252e+07         6.45501e+10
    9.63             46548.3             5.10812         5.44082e+07         6.35951e+10
    9.65             45863.6             4.99035         5.36078e+07         6.26597e+10
    9.67             45192.9              4.8755         5.28239e+07         6.17434e+10
    9.69             44535.8             4.76382         5.20558e+07         6.08457e+10
    9.71               43892             4.65552         5.13034e+07         5.99662e+10
    9.73             43261.3             4.55073         5.05661e+07         5.91045e+10
    9.75             42643.3             4.44952         4.98438e+07         5.82601e+10
    9.77             42037.6             4.35193         4.91359e+07         5.74327e+10
    9.79             41444.1             4.25798         4.84422e+07         5.66219e+10
    9.81             40862.4             4.16763         4.77622e+07         5.58272e+10
    9.83             40292.2             4.08082         4.70958e+07         5.50482e+10
    9.85             39733.3             3.99749         4.64424e+07         5.42845e+10
    9.87             39185.3             3.91754         4.58019e+07         5.35359e+10
    9.89               38648             3.84089         4.51739e+07         5.28018e+10
    9.91             38121.1             3.76741         4.45581e+07          5.2082e+10
    9.93             37604.4               3.697         4.39542e+07         5.13761e+10
    9.95             37097.7             3.62955         4.33618e+07         5.06837e+10
    9.97             36600.6             3.56492         4.27808e+07         5.00046e+10
    9.99             36112.9             3.50301         4.22108e+07         4.93384e+10
   10.01             35634.5              3.4437         4.16516e+07         4.86847e+10
   10.03             35165.1             3.38687         4.11029e+07         4.80433e+10
   10.05             34704.4             3.33241         4.05644e+07          4.7414e+10
   10.07             34252.3              3.2802          4.0036e+07         4.67963e+10
   10.09             33808.6             3.23015         3.95173e+07           4.619e+10
   10.11               33373             3.18216         3.90082e+07         4.55949e+10
   10.13             32945.4             3.13612         3.85084e+07         4.50106e+10
   10.15             32525.6             3.09193         3.80176e+07          4.4437e+10
   10.17             32113.3             3.04953         3.75358e+07         4.38738e+10
   10.19             31708.5             3.00881         3.70626e+07         4.33207e+10
   10.21               31311             2.96969         3.65979e+07         4.27775e+10
   10.23             30920.5             2.93211         3.61415e+07          4.2244e+10
   10.25               30537             2.89598         3.56932e+07           4.172e+10
   10.27             30160.2             2.86123         3.52527e+07         4.12052e+10
   10.29               29790             2.82782         3.48201e+07         4.06994e+10
   10.31             29426.3             2.79566         3.43949e+07         4.02025e+10
   10.33             29068.9              2.7647         3.39772e+07         3.97142e+10
   10.35             28717.7             2.73489         3.35667e+07         3.92343e+10
   10.37             28372.6             2.70617         3.31632e+07         3.87627e+10
   10.39             28033.3             2.67849         3.27667e+07         3.82992e+10
   10.41             27699.9             2.65181         3.23769e+07         3.78436e+10
   10.43             27372.1             2.62609         3.19937e+07         3.73957e+10
   10.45             27049.8             2.60127         3.16171e+07         3.69554e+10
   10.47               26733             2.57733         3.12467e+07         3.65225e+10
   10.49             26421.5             2.55422         3.08825e+07         3.60969e+10
   10.51             26115.1              2.5319         3.05245e+07         3.56783e+10
   10.53             25813.9             2.51036         3.01723e+07         3.52667e+10
   10.55             25517.6             2.48954          2.9826e+07         3.48619e+10
   10.57             25226.2             2.46943         2.94854e+07         3.44637e+10
   10.59             24939.6             2.44999         2.91504e+07         3.40721e+10
   10.61             24657.7             2.43121         2.88208e+07         3.36868e+10
   10.63             24380.3             2.41304         2.84966e+07         3.33078e+10
   10.65             24107.4             2.39547         2.81776e+07          3.2935e+10
   10.67             23838.9             2.37848         2.78638e+07         3.25681e+10
   10.69             23574.8             2.36204          2.7555e+07         3.22072e+10
   10.71             23314.8             2.34614         2.72511e+07          3.1852e+10
   10.73               23059             2.33075         2.69521e+07         3.15025e+10
   10.75             22807.3             2.31585         2.66578e+07         3.11585e+10
   10.77             22559.5             2.30144         2.63682e+07         3.08199e+10
   10.79             22315.7             2.28748         2.60832e+07         3.04867e+10
   10.81             22075.6             2.27397         2.58026e+07         3.01587e+10
   10.83             21839.3             2.26089         2.55264e+07         2.98359e+10
   10.85             21606.7             2.24823         2.52545e+07          2.9518e+10
   10.87             21377.7             2.23597         2.49868e+07         2.92051e+10
   10.89             21152.3             2.22411         2.47233e+07         2.88971e+10
   10.91             20930.3             2.21261         2.44638e+07         2.85938e+10
   10.93             20711.7             2.20149         2.42083e+07         2.82951e+10
   10.95             20496.5             2.19072         2.39567e+07          2.8001e+10
   10.97             20284.6             2.18029         2.37089e+07         2.77114e+10
   10.99             20075.9              2.1702          2.3465e+07         2.74262e+10
   11.01             19870.3             2.16044         2.32247e+07         2.71453e+10
   11.03             19667.9             2.15098          2.2988e+07         2.68687e+10
   11.05             19468.4             2.14184         2.27549e+07         2.65962e+10
   11.07               19272             2.13299         2.25253e+07         2.63278e+10
   11.09             19078.6             2.12443         2.22992e+07         2.60634e+10
   11.11               18888             2.11616         2.20764e+07          2.5803e+10
   11.13             18700.2             2.10816         2.18569e+07         2.55465e+10
   11.15             18515.3             2.10043         2.16407e+07         2.52937e+10
   11.17             18333.1             2.09296         2.14277e+07         2.50447e+10
   11.19             18153.5             2.08575         2.12178e+07         2.47994e+10
   11.21             17976.6             2.07878          2.1011e+07         2.45577e+10
   11.23             17802.3             2.07206         2.08073e+07         2.43195e+10
   11.25             17630.6             2.06557         2.06065e+07         2.40848e+10
   11.27             17461.3             2.05932         2.04087e+07         2.38535e+10
   11.29             17294.5             2.05329         2.02137e+07         2.36256e+10
   11.31             17130.2             2.04749         2.00216e+07          2.3401e+10
   11.33             16968.2              2.0419         1.98322e+07         2.31797e+10
   11.35             16808.6             2.03653         1.96456e+07         2.29615e+10
   11.37             16651.2             2.03137         1.94617e+07         2.27465e+10
   11.39             16496.2              2.0264         1.92804e+07         2.25346e+10
   11.41             16343.3             2.02164         1.91017e+07         2.23257e+10
   11.43             16192.7             2.01708         1.89256e+07         2.21199e+10
   11.45             16044.2             2.01271          1.8752e+07         2.19169e+10
   11.47             15897.8             2.00853         1.85809e+07         2.17169e+10
   11.49             15753.5             2.00453         1.84122e+07         2.15197e+10
   11.51             15611.2             2.00072         1.82459e+07         2.13253e+10
   11.53               15471             1.99708          1.8082e+07         2.11337e+10
   11.55             15332.8             1.99363         1.79204e+07         2.09447e+10
   11.57             15196.5             1.99034         1.77611e+07         2.07585e+10
   11.59             15062.1             1.98723          1.7604e+07         2.05749e+10
   11.61             14929.6             1.98428         1.74491e+07         2.03938e+10
   11.63               14799              1.9815         1.72964e+07         2.02153e+10
   11.65             14670.2             1.97888         1.71459e+07         2.00393e+10
   11.67             14543.3             1.97643         1.69975e+07         1.98658e+10
   11.69             14418.1             1.97413         1.68511e+07         1.96947e+10
   11.71             14294.6             1.97199         1.67068e+07          1.9526e+10
   11.73             14172.9                1.97         1.65645e+07         1.93597e+10
   11.75             14052.9             1.96816         1.64242e+07         1.91957e+10
   11.77             13934.6             1.96647         1.62859e+07          1.9034e+10
   11.79             13817.9             1.96493         1.61495e+07         1.88745e+10
   11.81             13702.9             1.96354          1.6015e+07         1.87173e+10
   11.83             13589.4             1.96229         1.58824e+07         1.85622e+10
   11.85             13477.5             1.96119         1.57516e+07         1.84093e+10
   11.87             13367.2             1.96022         1.56226e+07         1.82585e+10
   11.89             13258.4             1.95939         1.54954e+07         1.81099e+10
   11.91             13151.1             1.95871           1.537e+07         1.79632e+10
   11.93             13045.4             1.95815         1.52463e+07         1.78187e+10
   11.95               12941             1.95774         1.51244e+07         1.76761e+10
   11.97             12838.2             1.95745         1.50041e+07         1.75355e+10
   11.99             12736.7              1.9573         1.48855e+07         1.73969e+10
   12.01             12636.7             1.95728         1.47686e+07         1.72602e+10
   12.03             12538.1             1.95739         1.46533e+07         1.71254e+10
   12.05             12440.8             1.95763         1.45396e+07         1.69924e+10
   12.07             12344.9             1.95799         1.44275e+07         1.68613e+10
   12.09             12250.3             1.95848         1.43169e+07         1.67321e+10
   12.11             12157.1              1.9591         1.42079e+07         1.66046e+10
   12.13             12065.1             1.95984         1.41004e+07         1.64789e+10
   12.15             11974.5              1.9607         1.39944e+07          1.6355e+10
   12.17             11885.1             1.96169         1.38899e+07         1.62328e+10
   12.19             11796.9              1.9628         1.37868e+07         1.61123e+10
   12.21               11710             1.96402         1.36852e+07         1.59935e+10
   12.23             11624.3             1.96537          1.3585e+07         1.58764e+10
   12.25             11539.8             1.96683         1.34862e+07         1.57609e+10
   12.27             11456.5             1.96842         1.33888e+07          1.5647e+10
   12.29             11374.4             1.97012         1.32928e+07         1.55348e+10
   12.31             11293.5             1.97193         1.31982e+07         1.54241e+10
   12.33             11213.7             1.97386         1.31049e+07          1.5315e+10
   12.35               11135             1.97591         1.30129e+07         1.52075e+10
   12.37             11057.4             1.97807         1.29222e+07         1.51015e+10
   12.39               10981             1.98034         1.28328e+07          1.4997e+10
   12.41             10905.7             1.98272         1.27447e+07          1.4894e+10
   12.43             10831.4             1.98522         1.26579e+07         1.47925e+10
   12.45             10758.2             1.98783         1.25724e+07         1.46924e+10
   12.47             10686.1             1.99055          1.2488e+07         1.45938e+10
   12.49               10615             1.99338         1.24049e+07         1.44966e+10
   12.51               10545             1.99631          1.2323e+07         1.44009e+10
   12.53               10476             1.99936         1.22423e+07         1.43065e+10
   12.55               10408             2.00252         1.21628e+07         1.42136e+10
   12.57               10341             2.00578         1.20845e+07          1.4122e+10
   12.59               10275             2.00915         1.20074e+07         1.40318e+10
   12.61               10210             2.01263         1.19313e+07         1.39429e+10
   12.63               10146             2.01621         1.18565e+07         1.38554e+10
   12.65             10082.9              2.0199         1.17828e+07         1.37692e+10
   12.67             10020.8             2.02369         1.17101e+07         1.36843e+10
   12.69             9959.69             2.02759         1.16387e+07         1.36007e+10
   12.71             9899.49             2.03159         1.15683e+07         1.35183e+10
   12.73             9840.23              2.0357         1.14989e+07         1.34373e+10
   12.75             9781.89             2.03991         1.14307e+07         1.33575e+10
   12.77             9724.46             2.04422         1.13636e+07          1.3279e+10
   12.79             9667.95             2.04864         1.12975e+07         1.32017e+10
   12.81             9612.35             2.05315         1.12325e+07         1.31257e+10
   12.83             9557.64             2.05777         1.11685e+07         1.30508e+10
   12.85             9503.82             2.06249         1.11055e+07         1.29772e+10
   12.87             9450.88             2.06731         1.10436e+07         1.29048e+10
   12.89             9398.82             2.07222         1.09827e+07         1.28336e+10
   12.91             9347.63             2.07724         1.09229e+07         1.27636e+10
   12.93             9297.31             2.08236          1.0864e+07         1.26948e+10
   12.95             9247.85             2.08757         1.08062e+07         1.26271e+10
   12.97             9199.24             2.09288         1.07493e+07         1.25606e+10
   12.99             9151.48             2.09829         1.06935e+07         1.24953e+10
   13.01             9104.56              2.1038         1.06386e+07         1.24311e+10
   13.03             9058.48              2.1094         1.05847e+07         1.23681e+10
   13.05             9013.24              2.1151         1.05318e+07         1.23062e+10
   13.07             8968.83              2.1209         1.04798e+07         1.22454e+10
   13.09             8925.25             2.12679         1.04288e+07         1.21858e+10
   13.11             8882.49             2.13277         1.03788e+07         1.21272e+10
   13.13             8840.54             2.13884         1.03298e+07         1.20699e+10
   13.15             8799.42             2.14501         1.02817e+07         1.20136e+10
   13.17             8759.11             2.15128         1.02345e+07         1.19584e+10
   13.19              8719.6             2.15763         1.01883e+07         1.19043e+10
   13.21             8680.91             2.16408          1.0143e+07         1.18514e+10
   13.23             8643.02             2.17061         1.00987e+07         1.17995e+10
   13.25             8605.94             2.17724         1.00553e+07         1.17488e+10
   13.27             8569.65             2.18395         1.00128e+07         1.16991e+10
   13.29             8534.17             2.19076         9.97132e+06         1.16505e+10
   13.31             8499.49             2.19765         9.93074e+06          1.1603e+10
   13.33              8465.6             2.20463         9.89108e+06         1.15566e+10
   13.35             8432.51             2.21169         9.85236e+06         1.15113e+10
   13.37             8400.21             2.21884         9.81457e+06         1.14671e+10
   13.39             8368.72             2.22608          9.7777e+06         1.14239e+10
   13.41             8338.01              2.2334         9.74177e+06         1.13819e+10
   13.43              8308.1              2.2408         9.70676e+06         1.13409e+10
   13.45             8278.99             2.24829         9.67268e+06          1.1301e+10
   13.47             8250.68             2.25585         9.63954e+06         1.12622e+10
   13.49             8223.16              2.2635         9.60732e+06         1.12245e+10
   13.51             8196.44             2.27123         9.57604e+06         1.11879e+10
   13.53             8170.53             2.27903          9.5457e+06         1.11523e+10
   13.55             8145.41             2.28691         9.51629e+06         1.11179e+10
   13.57             8121.11             2.29487         9.48783e+06         1.10846e+10
   13.59              8097.6             2.30291          9.4603e+06         1.10523e+10
   13.61             8074.91             2.31101         9.43372e+06         1.10212e+10
   13.63             8053.03              2.3192         9.40809e+06         1.09912e+10
   13.65             8031.97             2.32745         9.38342e+06         1.09623e+10
   13.67             8011.73             2.33577          9.3597e+06         1.09345e+10
   13.69             7992.31             2.34416         9.33695e+06         1.09078e+10
   13.71             7973.73             2.35263         9.31516e+06         1.08823e+10
   13.73             7955.97             2.36115         9.29435e+06         1.08579e+10
   13.75             7939.06             2.36975         9.27451e+06         1.08346e+10
   13.77             7922.98              2.3784         9.25567e+06         1.08125e+10
   13.79             7907.76             2.38712         9.23781e+06         1.07916e+10
   13.81              7893.4              2.3959         9.22096e+06         1.07718e+10
   13.83              7879.9             2.40474         9.20511e+06         1.07532e+10
   13.85             7867.27             2.41364         9.19028e+06         1.07358e+10
   13.87             7855.51             2.42259         9.17647e+06         1.07196e+10
   13.89             7844.65             2.43159          9.1637e+06         1.07046e+10
   13.91             7834.67             2.44065         9.15197e+06         1.06908e+10
   13.93              7825.6             2.44976          9.1413e+06         1.06782e+10
   13.95             7817.45             2.45892         9.13169e+06         1.06669e+10
   13.97             7810.21             2.46812         9.12316e+06         1.06568e+10
   13.99             7803.91             2.47737         9.11571e+06          1.0648e+10
   14.01             7798.55             2.48666         9.10937e+06         1.06405e+10
   14.03             7794.15               2.496         9.10415e+06         1.06343e+10
   14.05             7790.71             2.50537         9.10005e+06         1.06295e+10
   14.07             7788.25             2.51477         9.09709e+06         1.06259e+10
   14.09             7786.78             2.52421         9.09529e+06         1.06237e+10
   14.11             7786.32             2.53369         9.09467e+06         1.06229e+10
   14.13             7786.89             2.54319         9.09524e+06         1.06234e+10
   14.15             7788.48             2.55271         9.09702e+06         1.06254e+10
   14.17             7791.13             2.56227         9.10002e+06         1.06288e+10
   14.19             7794.85             2.57184         9.10427e+06         1.06337e+10
   14.21             7799.65             2.58143         9.10979e+06           1.064e+10
   14.23             7805.55             2.59104          9.1166e+06         1.06479e+10
   14.25             7812.58             2.60066         9.12471e+06         1.06572e+10
   14.27             7820.74              2.6103         9.13415e+06         1.06682e+10
   14.29             7830.07             2.61994         9.14496e+06         1.06807e+10
   14.31             7840.58             2.62958         9.15714e+06         1.06948e+10
   14.33             7852.29             2.63923         9.17072e+06         1.07105e+10
   14.35             7865.24             2.64887         9.18574e+06          1.0728e+10
   14.37             7879.43             2.65851         9.20222e+06         1.07471e+10
   14.39              7894.9             2.66815         9.22019e+06          1.0768e+10
   14.41             7911.68             2.67777         9.23968e+06         1.07906e+10
   14.43             7929.78             2.68738         9.26073e+06         1.08151e+10
   14.45             7949.25             2.69697         9.28336e+06         1.08414e+10
   14.47              7970.1             2.70654         9.30761e+06         1.08696e+10
   14.49             7992.37             2.71608         9.33352e+06         1.08997e+10
   14.51             8016.09              2.7256         9.36112e+06         1.09318e+10
   14.53              8041.3             2.73508         9.39045e+06          1.0966e+10
   14.55             8068.03             2.74453         9.42156e+06         1.10022e+10
   14.57             8096.32             2.75394         9.45448e+06         1.10405e+10
   14.59              8126.2              2.7633         9.48927e+06          1.1081e+10
   14.61             8157.72             2.77262         9.52596e+06         1.11237e+10
   14.63             8190.91             2.78189         9.56461e+06         1.11687e+10
   14.65             8225.82              2.7911         9.60527e+06         1.12161e+10
   14.67              8262.5             2.80025         9.64798e+06         1.12658e+10
   14.69             8300.98             2.80934         9.69281e+06          1.1318e+10
   14.71             8341.33             2.81836         9.73981e+06         1.13728e+10
   14.73             8383.59             2.82731         9.78903e+06         1.14301e+10
   14.75             8427.81             2.83618         9.84056e+06         1.14901e+10
   14.77             8474.06             2.84497         9.89443e+06         1.15529e+10
   14.79             8522.38             2.85368         9.95074e+06         1.16185e+10
   14.81             8572.84              2.8623         1.00095e+07          1.1687e+10
   14.83             8625.51             2.87082         1.00709e+07         1.17585e+10
   14.85             8680.44             2.87925         1.01349e+07         1.18331e+10
   14.87             8737.72             2.88758         1.02017e+07         1.19109e+10
   14.89              8797.4              2.8958         1.02712e+07          1.1992e+10
   14.91             8859.57              2.9039         1.03437e+07         1.20764e+10
   14.93              8924.3             2.91189         1.04191e+07         1.21644e+10
   14.95             8991.69             2.91976         1.04977e+07         1.22559e+10
   14.97              9061.8             2.92751         1.05794e+07         1.23512e+10
   14.99             9134.75             2.93512         1.06644e+07         1.24503e+10
   15.01             9210.61              2.9426         1.07529e+07         1.25534e+10
   15.03             9289.49             2.94995         1.08448e+07         1.26606e+10
   15.05             9371.49             2.95714         1.09404e+07          1.2772e+10
   15.07             9456.72             2.96419         1.10398e+07         1.28878e+10
   15.09              9545.3             2.97109          1.1143e+07         1.30082e+10
   15.11             9637.34             2.97783         1.12503e+07         1.31333e+10
   15.13             9732.96             2.98441         1.13618e+07         1.32633e+10
   15.15             9832.31             2.99082         1.14777e+07         1.33984e+10
   15.17             9935.52             2.99706          1.1598e+07         1.35387e+10
   15.19             10042.7             3.00313          1.1723e+07         1.36844e+10
   15.21             10154.1             3.00901         1.18528e+07         1.38358e+10
   15.23             10269.8             3.01471         1.19877e+07         1.39931e+10
   15.25             10389.9             3.02022         1.21278e+07         1.41564e+10
   15.27             10514.7             3.02554         1.22733e+07         1.43261e+10
   15.29             10644.3             3.03066         1.24245e+07         1.45024e+10
   15.31               10779             3.03558         1.25815e+07         1.46855e+10
   15.33             10918.9             3.04029         1.27447e+07         1.48757e+10
   15.35             11064.3              3.0448         1.29142e+07         1.50734e+10
   15.37             11215.3             3.04909         1.30903e+07         1.52788e+10
   15.39             11372.2             3.05316         1.32733e+07         1.54922e+10
   15.41             11535.3             3.05701         1.34635e+07          1.5714e+10
   15.43             11704.8             3.06063         1.36612e+07         1.59445e+10
   15.45               11881             3.06403         1.38667e+07         1.61842e+10
   15.47             12064.2             3.06719         1.40803e+07         1.64333e+10
   15.49             12254.7             3.07012         1.43025e+07         1.66924e+10
   15.51             12452.9              3.0728         1.45335e+07         1.69619e+10
   15.53               12659             3.07525         1.47739e+07         1.72422e+10
   15.55             12873.4             3.07745         1.50239e+07         1.75338e+10
   15.57             13096.5              3.0794         1.52842e+07         1.78373e+10
   15.59             13328.7              3.0811          1.5555e+07         1.81531e+10
   15.61             13570.5             3.08254         1.58369e+07          1.8482e+10
   15.63             13822.2             3.08373         1.61305e+07         1.88244e+10
   15.65             14084.4             3.08465         1.64363e+07          1.9181e+10
   15.67             14357.5             3.08532         1.67549e+07         1.95526e+10
   15.69             14642.1             3.08572         1.70868e+07         1.99397e+10
   15.71             14938.8             3.08586         1.74328e+07         2.03433e+10
   15.73             15248.1             3.08573         1.77936e+07          2.0764e+10
   15.75             15570.7             3.08533         1.81698e+07         2.12028e+10
   15.77             15907.1             3.08465         1.85622e+07         2.16605e+10
   15.79             16258.2             3.08371         1.89717e+07         2.21382e+10
   15.81             16624.7             3.08249         1.93992e+07         2.26367e+10
   15.83             17007.3               3.081         1.98454e+07         2.31571e+10
   15.85             17406.8             3.07923         2.03114e+07         2.37007e+10
   15.87             17824.2             3.07718         2.07983e+07         2.42685e+10
   15.89             18260.4             3.07486          2.1307e+07         2.48619e+10
   15.91             18716.3             3.07226         2.18388e+07         2.54821e+10
   15.93               19193             3.06939         2.23947e+07         2.61306e+10
   15.95             19691.5             3.06624         2.29762e+07         2.68089e+10
   15.97             20213.1             3.06281         2.35846e+07         2.75184e+10
   15.99             20758.9              3.0591         2.42212e+07          2.8261e+10
   16.01             21330.1             3.05512         2.48875e+07         2.90382e+10
   16.03             21928.2             3.05086         2.55851e+07         2.98519e+10
   16.05             22554.6             3.04633         2.63157e+07         3.07041e+10
   16.07             23210.7             3.04152          2.7081e+07         3.15967e+10
   16.09             23898.1             3.03645         2.78828e+07         3.25319e+10
   16.11             24618.3              3.0311         2.87229e+07         3.35118e+10
   16.13             25373.2             3.02549         2.96034e+07         3.45388e+10
   16.15             26164.4              3.0196         3.05262e+07         3.56152e+10
   16.17             26993.7             3.01346         3.14935e+07         3.67435e+10
   16.19               27863             3.00705         3.25075e+07         3.79263e+10
   16.21             28774.3             3.00038         3.35705e+07         3.91661e+10
   16.23             29729.4             2.99345         3.46845e+07         4.04656e+10
   16.25             30730.4             2.98627         3.58521e+07         4.18275e+10
   16.27             31779.2             2.97884         3.70755e+07         4.32545e+10
   16.29             32877.7             2.97115         3.83569e+07         4.47491e+10
   16.31               34028             2.96322         3.96986e+07         4.63141e+10
   16.33             35231.7             2.95505         4.11027e+07         4.79519e+10
   16.35             36490.7             2.94664         4.25711e+07         4.96648e+10
   16.37             37806.3               2.938         4.41058e+07         5.14549e+10
   16.39               39180             2.92912          4.5708e+07         5.33238e+10
   16.41             40612.6             2.92002         4.73791e+07          5.5273e+10
   16.43             42104.7              2.9107         4.91196e+07         5.73032e+10
   16.45             43656.5             2.90115         5.09296e+07         5.94145e+10
   16.47             45267.4             2.89139         5.28087e+07         6.16063e+10
   16.49             46936.2             2.88142         5.47552e+07         6.38769e+10
   16.51             48660.8             2.87125          5.6767e+07         6.62235e+10
   16.53             50438.3             2.86087         5.88403e+07         6.86419e+10
   16.55             52264.4              2.8503         6.09703e+07         7.11265e+10
   16.57             54133.7             2.83953         6.31507e+07         7.36698e+10
   16.59             56039.2             2.82858         6.53734e+07         7.62625e+10
   16.61             57972.4             2.81744         6.76285e+07         7.88929e+10
   16.63             59923.3             2.80613          6.9904e+07         8.15472e+10
   16.65             61879.7             2.79465         7.21862e+07         8.42092e+10
   16.67               63828             2.78299         7.44587e+07           8.686e+10
   16.69             65752.4             2.77117         7.67035e+07         8.94784e+10
   16.71             67635.7             2.75919         7.89002e+07         9.20408e+10
   16.73               69459             2.74705         8.10269e+07         9.45215e+10
   16.75               71202             2.73477         8.30601e+07         9.68931e+10
   16.77             72843.7             2.72233          8.4975e+07         9.91268e+10
   16.79             74362.6             2.70975         8.67467e+07         1.01193e+11
   16.81             75737.2             2.69702         8.83501e+07         1.03064e+11
   16.83             76946.9             2.68416         8.97611e+07         1.04709e+11
   16.85             77972.4             2.67117         9.09573e+07         1.06105e+11
   16.87             78796.5             2.65804         9.19187e+07         1.07226e+11
   16.89             79404.9             2.64478         9.26283e+07         1.08054e+11
   16.91             79786.3              2.6314         9.30731e+07         1.08573e+11
   16.93             79933.4             2.61789         9.32446e+07         1.08773e+11
   16.95             79842.7             2.60426         9.31388e+07         1.08649e+11
   16.97             79515.1             2.59052         9.27566e+07         1.08203e+11
   16.99             78955.5             2.57666         9.21039e+07         1.07442e+11
   17.01               78173             2.56269         9.11911e+07         1.06377e+11
   17.03             77179.9             2.54862         9.00327e+07         1.05026e+11
   17.05             75991.9             2.53444         8.86468e+07         1.03409e+11
   17.07             74626.9             2.52017         8.70546e+07         1.01552e+11
   17.09               73105              2.5058         8.52793e+07          9.9481e+10
   17.11               71447             2.49134         8.33453e+07         9.72251e+10
   17.13             69674.8              2.4768          8.1278e+07         9.48136e+10
   17.15             67809.8             2.46218         7.91025e+07         9.22759e+10
   17.17               65873             2.44749         7.68433e+07         8.96405e+10
   17.19             63884.3             2.43273         7.45235e+07         8.69346e+10
   17.21             61862.4              2.4179          7.2165e+07         8.41835e+10
   17.23             59824.3             2.40302         6.97876e+07         8.14103e+10
   17.25             57785.2             2.38809          6.7409e+07         7.86357e+10
   17.27             55758.5             2.37312          6.5045e+07         7.58781e+10
   17.29             53755.8              2.3581         6.27089e+07         7.31531e+10
   17.31             51786.9             2.34305         6.04122e+07          7.0474e+10
   17.33             49859.8             2.32797         5.81643e+07          6.7852e+10
   17.35             47981.2             2.31286         5.59729e+07         6.52958e+10
   17.37             46156.1             2.29774         5.38439e+07         6.28123e+10
   17.39             44388.3              2.2826         5.17818e+07         6.04069e+10
   17.41             42680.4             2.26745         4.97897e+07         5.80832e+10
   17.43             41034.4             2.25229         4.78696e+07         5.58434e+10
   17.45             39450.9             2.23714         4.60225e+07         5.36888e+10
   17.47             37930.3             2.22198         4.42488e+07         5.16198e+10
   17.49             36472.1             2.20683         4.25478e+07         4.96357e+10
   17.51             35075.5              2.1917         4.09187e+07         4.77354e+10
   17.53             33739.3             2.17657         3.93601e+07         4.59172e+10
   17.55               32462             2.16147           3.787e+07         4.41791e+10
   17.57             31241.7             2.14638         3.64466e+07         4.25187e+10
   17.59             30076.6             2.13132         3.50876e+07         4.09334e+10
   17.61             28964.7             2.11628         3.37906e+07         3.94205e+10
   17.63             27903.9             2.10128         3.25532e+07         3.79771e+10
   17.65             26892.1             2.08631         3.13729e+07         3.66003e+10
   17.67             25927.2             2.07137         3.02473e+07         3.52873e+10
   17.69               25007             2.05648         2.91739e+07         3.40352e+10
   17.71             24129.4             2.04162         2.81503e+07         3.28411e+10
   17.73             23292.5             2.02681          2.7174e+07         3.17024e+10
   17.75             22494.3             2.01204         2.62429e+07         3.06162e+10
   17.77             21732.8             1.99733         2.53546e+07         2.95801e+10
   17.79             21006.3             1.98266         2.45071e+07         2.85914e+10
   17.81             20312.9             1.96805         2.36983e+07         2.76479e+10
   17.83             19650.9             1.95349         2.29261e+07         2.67472e+10
   17.85             19018.9             1.93899         2.21888e+07         2.58872e+10
   17.87             18415.1             1.92454         2.14846e+07         2.50656e+10
   17.89             17838.2             1.91016         2.08116e+07         2.42806e+10
   17.91             17286.8             1.89584         2.01684e+07         2.35303e+10
   17.93             16759.6             1.88158         1.95534e+07         2.28129e+10
   17.95             16255.2             1.86739          1.8965e+07         2.21266e+10
   17.97             15772.6             1.85327         1.84021e+07         2.14699e+10
   17.99             15310.6             1.83921         1.78632e+07         2.08413e+10
   18.01             14868.2             1.82523         1.73471e+07         2.02392e+10
   18.03             14444.3             1.81132         1.68526e+07         1.96624e+10
   18.05             14038.1             1.79747         1.63787e+07         1.91096e+10
   18.07             13648.5             1.78371         1.59243e+07         1.85796e+10
   18.09             13274.9             1.77002         1.54884e+07         1.80711e+10
   18.11             12916.3              1.7564         1.50702e+07         1.75832e+10
   18.13             12572.1             1.74286         1.46686e+07         1.71148e+10
   18.15             12241.5              1.7294          1.4283e+07         1.66649e+10
   18.17             11923.8             1.71602         1.39124e+07         1.62327e+10
   18.19             11618.5             1.70271         1.35562e+07         1.58172e+10
   18.21             11324.9             1.68949         1.32138e+07         1.54177e+10
   18.23             11042.5             1.67635         1.28843e+07         1.50333e+10
   18.25             10770.7              1.6633         1.25672e+07         1.46635e+10
   18.27               10509             1.65032          1.2262e+07         1.43074e+10
   18.29               10257             1.63743          1.1968e+07         1.39644e+10
   18.31             10014.2             1.62462         1.16847e+07          1.3634e+10
   18.33              9780.1              1.6119         1.14117e+07         1.33155e+10
   18.35             9554.42             1.59926         1.11484e+07         1.30084e+10
   18.37             9336.73             1.58671         1.08945e+07         1.27121e+10
   18.39             9126.66             1.57424         1.06494e+07         1.24263e+10
   18.41             8923.88             1.56186         1.04129e+07         1.21503e+10
   18.43             8728.06             1.54957         1.01844e+07         1.18838e+10
   18.45             8538.89             1.53736         9.96376e+06         1.16264e+10
   18.47             8356.09             1.52524         9.75051e+06         1.13776e+10
   18.49             8179.37              1.5132         9.54436e+06         1.11372e+10
   18.51             8008.48             1.50126         9.34501e+06         1.09046e+10
   18.53             7843.17              1.4894         9.15216e+06         1.06796e+10
   18.55             7683.19             1.47763         8.96554e+06         1.04619e+10
   18.57             7528.34             1.46595         8.78489e+06         1.02512e+10
   18.59             7378.38             1.45435         8.60996e+06         1.00471e+10
   18.61             7233.13             1.44284         8.44051e+06         9.84943e+09
   18.63             7092.39             1.43143         8.27632e+06          9.6579e+09
   18.65             6955.98             1.42009         8.11719e+06         9.47225e+09
   18.67             6823.71             1.40885         7.96289e+06         9.29225e+09
   18.69             6695.44             1.39769         7.81324e+06         9.11768e+09
   18.71             6570.99             1.38662         7.66807e+06         8.94831e+09
   18.73             6450.22             1.37564         7.52718e+06         8.78396e+09
   18.75             6332.99             1.36475         7.39042e+06         8.62441e+09
   18.77             6219.16             1.35394         7.25762e+06         8.46949e+09
   18.79              6108.6             1.34322         7.12864e+06         8.31902e+09
   18.81             6001.18             1.33258         7.00332e+06         8.17283e+09
   18.83             5896.79             1.32204         6.88154e+06         8.03075e+09
   18.85             5795.31             1.31157         6.76316e+06         7.89265e+09
   18.87             5696.64              1.3012         6.64805e+06         7.75836e+09
   18.89             5600.68             1.29091         6.53609e+06         7.62775e+09
   18.91             5507.32              1.2807         6.42718e+06         7.50068e+09
   18.93             5416.47             1.27058         6.32119e+06         7.37703e+09
   18.95             5328.04             1.26054         6.21802e+06         7.25668e+09
   18.97             5241.94             1.25059         6.11758e+06          7.1395e+09
   18.99              5158.1             1.24072         6.01977e+06         7.02539e+09
   19.01             5076.43             1.23094         5.92449e+06         6.91424e+09
   19.03             4996.86             1.22123         5.83166e+06         6.80594e+09
   19.05             4919.32             1.21161          5.7412e+06          6.7004e+09
   19.07             4843.73             1.20208         5.65302e+06         6.59752e+09
   19.09             4770.04             1.19262         5.56704e+06         6.49721e+09
   19.11             4698.17             1.18324         5.48319e+06         6.39939e+09
   19.13             4628.07             1.17395         5.40141e+06         6.30397e+09
   19.15             4559.67             1.16474         5.32161e+06         6.21088e+09
   19.17             4492.93              1.1556         5.24374e+06         6.12004e+09
   19.19             4427.78             1.14655         5.16774e+06         6.03137e+09
   19.21             4364.18             1.13757         5.09354e+06          5.9448e+09
   19.23             4302.08             1.12867         5.02109e+06         5.86027e+09
   19.25             4241.43             1.11985         4.95032e+06         5.77771e+09
   19.27             4182.18             1.11111          4.8812e+06         5.69706e+09
   19.29             4124.28             1.10244         4.81366e+06         5.61826e+09
   19.31             4067.71             1.09385         4.74765e+06         5.54125e+09
   19.33             4012.41             1.08534         4.68313e+06         5.46598e+09
   19.35             3958.35              1.0769         4.62006e+06         5.39239e+09
   19.37             3905.49             1.06854         4.55838e+06         5.32044e+09
   19.39             3853.79             1.06025         4.49807e+06         5.25006e+09
   19.41             3803.22             1.05203         4.43906e+06         5.18122e+09
   19.43             3753.74             1.04389         4.38134e+06         5.11387e+09
   19.45             3705.33             1.03582         4.32485e+06         5.04797e+09
   19.47             3657.94             1.02782         4.26957e+06         4.98347e+09
   19.49             3611.56             1.01989         4.21545e+06         4.92033e+09
   19.51             3566.15             1.01204         4.16247e+06         4.85851e+09
   19.53             3521.68             1.00425         4.11059e+06         4.79798e+09
   19.55             3478.13            0.996536         4.05978e+06          4.7387e+09
   19.57             3435.48             0.98889         4.01001e+06         4.68063e+09
   19.59             3393.68            0.981312         3.96125e+06         4.62374e+09
   19.61             3352.73            0.973803         3.91347e+06         4.56799e+09
   19.63              3312.6            0.966361         3.86665e+06         4.51336e+09
   19.65             3273.27            0.958986         3.82075e+06         4.45981e+09
   19.67              3234.7            0.951678         3.77576e+06         4.40731e+09
   19.69              3196.9            0.944436         3.73164e+06         4.35584e+09
   19.71             3159.82            0.937259         3.68839e+06         4.30537e+09
   19.73             3123.46            0.930148         3.64596e+06         4.25587e+09
   19.75             3087.79              0.9231         3.60434e+06         4.20731e+09
   19.77              3052.8            0.916116         3.56351e+06         4.15967e+09
   19.79             3018.47            0.909196         3.52345e+06         4.11293e+09
   19.81             2984.77            0.902338         3.48414e+06         4.06706e+09
   19.83             2951.71            0.895542         3.44556e+06         4.02204e+09
   19.85             2919.25            0.888808         3.40768e+06         3.97785e+09
   19.87             2887.38            0.882134          3.3705e+06         3.93446e+09
   19.89             2856.09            0.875522         3.33399e+06         3.89186e+09
   19.91             2825.36            0.868969         3.29814e+06         3.85003e+09
   19.93             2795.18            0.862475         3.26293e+06         3.80894e+09
   19.95             2765.54            0.856041         3.22834e+06         3.76859e+09
   19.97             2736.42            0.849665         3.19436e+06         3.72894e+09
   19.99             2707.81            0.843346         3.16098e+06         3.68999e+09
   20.01              2679.7            0.837085         3.12817e+06         3.65171e+09
