## w(eV)         sigma(Sm^-1)     kappa(W(mK)^-1)        L12/e(Am^-1)      L22/e^2(Wm^-1)
    0.01         1.76974e+06        -2.80347e+07         5.60389e+08             1227.55
    0.03         1.77028e+06         -2.8045e+07         5.60736e+08             1229.16
    0.05         1.77133e+06        -2.80656e+07         5.61428e+08              1232.4
    0.07          1.7729e+06        -2.80961e+07         5.62461e+08             1237.23
    0.09         1.77497e+06        -2.81365e+07         5.63829e+08             1243.64
    0.11         1.77752e+06        -2.81865e+07         5.65526e+08             1251.61
    0.13         1.78053e+06        -2.82457e+07         5.67546e+08             1261.11
    0.15           1.784e+06        -2.83139e+07         5.69879e+08             1272.08
    0.17          1.7879e+06         -2.8391e+07          5.7252e+08             1284.49
    0.19         1.79224e+06        -2.84769e+07         5.75459e+08             1298.28
    0.21         1.79701e+06        -2.85715e+07         5.78689e+08             1313.36
    0.23         1.80222e+06        -2.86747e+07         5.82202e+08             1329.68
    0.25         1.80785e+06        -2.87866e+07         5.85989e+08             1347.13
    0.27         1.81391e+06         -2.8907e+07         5.90037e+08              1365.6
    0.29         1.82038e+06        -2.90357e+07         5.94333e+08                1385
    0.31         1.82724e+06        -2.91723e+07         5.98859e+08             1405.19
    0.33         1.83442e+06         -2.9316e+07         6.03592e+08             1426.03
    0.35         1.84185e+06        -2.94657e+07         6.08503e+08             1447.38
    0.37         1.84944e+06        -2.96201e+07         6.13557e+08             1469.08
    0.39         1.85703e+06        -2.97772e+07         6.18713e+08             1490.96
    0.41         1.86447e+06        -2.99345e+07         6.23921e+08             1512.85
    0.43         1.87154e+06        -3.00892e+07         6.29126e+08             1534.58
    0.45         1.87801e+06         -3.0238e+07         6.34263e+08             1555.95
    0.47         1.88363e+06        -3.03772e+07         6.39266e+08             1576.78
    0.49          1.8881e+06        -3.05029e+07          6.4406e+08             1596.87
    0.51         1.89116e+06        -3.06109e+07          6.4857e+08             1616.05
    0.53          1.8925e+06         -3.0697e+07          6.5272e+08             1634.12
    0.55         1.89185e+06        -3.07571e+07         6.56434e+08             1650.91
    0.57         1.88896e+06        -3.07875e+07         6.59642e+08             1666.25
    0.59         1.88363e+06        -3.07848e+07         6.62278e+08             1679.99
    0.61         1.87566e+06        -3.07463e+07         6.64286e+08             1691.98
    0.63         1.86495e+06        -3.06698e+07          6.6562e+08             1702.12
    0.65         1.85145e+06         -3.0554e+07         6.66247e+08              1710.3
    0.67         1.83515e+06        -3.03985e+07         6.66146e+08             1716.48
    0.69         1.81611e+06        -3.02036e+07          6.6531e+08              1720.6
    0.71         1.79447e+06        -2.99704e+07         6.63745e+08             1722.67
    0.73         1.77038e+06        -2.97008e+07          6.6147e+08             1722.69
    0.75         1.74408e+06        -2.93972e+07         6.58513e+08             1720.72
    0.77         1.71579e+06        -2.90627e+07         6.54912e+08             1716.83
    0.79         1.68581e+06        -2.87003e+07         6.50712e+08              1711.1
    0.81         1.65439e+06        -2.83138e+07         6.45962e+08             1703.65
    0.83         1.62184e+06        -2.79066e+07         6.40714e+08             1694.59
    0.85         1.58842e+06        -2.74822e+07          6.3502e+08             1684.05
    0.87          1.5544e+06        -2.70442e+07         6.28933e+08             1672.16
    0.89         1.52003e+06        -2.65956e+07         6.22503e+08             1659.06
    0.91         1.48553e+06        -2.61395e+07         6.15774e+08             1644.88
    0.93          1.4511e+06        -2.56784e+07          6.0879e+08             1629.76
    0.95         1.41691e+06        -2.52146e+07         6.01588e+08             1613.82
    0.97         1.38311e+06        -2.47502e+07         5.94203e+08             1597.19
    0.99         1.34982e+06        -2.42869e+07         5.86661e+08             1579.96
    1.01         1.31714e+06         -2.3826e+07         5.78988e+08             1562.25
    1.03         1.28516e+06        -2.33687e+07         5.71204e+08             1544.15
    1.05         1.25393e+06        -2.29158e+07         5.63327e+08             1525.74
    1.07         1.22351e+06        -2.24682e+07         5.55373e+08             1507.11
    1.09         1.19392e+06        -2.20265e+07         5.47354e+08             1488.31
    1.11          1.1652e+06        -2.15911e+07         5.39283e+08             1469.43
    1.13         1.13736e+06        -2.11624e+07         5.31174e+08             1450.52
    1.15         1.11041e+06        -2.07411e+07         5.23041e+08             1431.65
    1.17         1.08436e+06        -2.03273e+07         5.14899e+08             1412.87
    1.19         1.05922e+06        -1.99217e+07         5.06765e+08             1394.24
    1.21           1.035e+06        -1.95248e+07          4.9866e+08             1375.83
    1.23          1.0117e+06        -1.91369e+07         4.90605e+08             1357.69
    1.25              989322        -1.87589e+07         4.82625e+08              1339.9
    1.27              967878        -1.83912e+07         4.74746e+08             1322.52
    1.29              947373        -1.80346e+07         4.66996e+08             1305.61
    1.31              927813        -1.76896e+07         4.59402e+08             1289.24
    1.33              909205        -1.73571e+07         4.51992e+08             1273.48
    1.35              891554        -1.70375e+07         4.44794e+08             1258.38
    1.37              874864        -1.67315e+07         4.37834e+08             1244.01
    1.39              859139        -1.64397e+07         4.31135e+08             1230.42
    1.41              844377        -1.61623e+07         4.24717e+08             1217.65
    1.43              830579        -1.58999e+07         4.18597e+08             1205.74
    1.45              817739        -1.56526e+07         4.12787e+08              1194.7
    1.47              805851        -1.54204e+07         4.07295e+08             1184.56
    1.49              794904        -1.52035e+07         4.02125e+08             1175.32
    1.51              784884        -1.50016e+07         3.97275e+08             1166.96
    1.53              775776        -1.48144e+07         3.92739e+08             1159.48
    1.55              767560        -1.46416e+07         3.88507e+08             1152.84
    1.57              760212        -1.44826e+07         3.84564e+08             1147.01
    1.59              753707        -1.43369e+07         3.80893e+08             1141.95
    1.61              748016        -1.42036e+07         3.77473e+08             1137.61
    1.63              743106        -1.40821e+07          3.7428e+08             1133.94
    1.65              738942        -1.39713e+07         3.71291e+08              1130.9
    1.67              735486        -1.38704e+07         3.68479e+08             1128.43
    1.69              732696        -1.37784e+07         3.65819e+08             1126.51
    1.71              730528        -1.36941e+07         3.63284e+08             1125.08
    1.73              728934        -1.36165e+07         3.60849e+08             1124.13
    1.75              727861        -1.35445e+07         3.58491e+08             1123.64
    1.77              727254        -1.34769e+07         3.56185e+08              1123.6
    1.79              727054        -1.34125e+07         3.53909e+08             1124.01
    1.81              727197        -1.33499e+07         3.51642e+08             1124.89
    1.83              727615         -1.3288e+07         3.49363e+08             1126.24
    1.85              728237        -1.32254e+07         3.47052e+08              1128.1
    1.87              728990        -1.31607e+07         3.44689e+08             1130.49
    1.89              729796        -1.30925e+07         3.42254e+08             1133.44
    1.91              730579        -1.30196e+07          3.3973e+08             1136.98
    1.93              731263        -1.29405e+07         3.37098e+08             1141.11
    1.95              731774        -1.28541e+07         3.34341e+08             1145.86
    1.97              732045        -1.27592e+07         3.31444e+08             1151.22
    1.99              732012        -1.26548e+07         3.28396e+08             1157.19
    2.01              731622        -1.25402e+07         3.25187e+08             1163.75
    2.03              730831        -1.24149e+07         3.21812e+08             1170.84
    2.05              729608        -1.22785e+07         3.18268e+08             1178.42
    2.07              727929        -1.21312e+07         3.14561e+08             1186.41
    2.09              725786        -1.19732e+07         3.10698e+08             1194.72
    2.11              723176         -1.1805e+07         3.06691e+08             1203.25
    2.13              720107        -1.16276e+07         3.02558e+08             1211.89
    2.15              716593         -1.1442e+07         2.98318e+08              1220.5
    2.17              712651        -1.12494e+07         2.93995e+08             1228.95
    2.19              708300        -1.10511e+07         2.89614e+08             1237.08
    2.21              703558        -1.08486e+07         2.85199e+08             1244.75
    2.23              698440        -1.06433e+07         2.80777e+08             1251.82
    2.25              692959        -1.04367e+07         2.76373e+08             1258.13
    2.27              687119        -1.02301e+07         2.72009e+08             1263.54
    2.29              680923        -1.00249e+07         2.67707e+08             1267.94
    2.31              674367        -9.82226e+06         2.63486e+08              1271.2
    2.33              667446        -9.62319e+06         2.59362e+08             1273.22
    2.35              660153        -9.42863e+06         2.55348e+08             1273.94
    2.37              652479        -9.23936e+06         2.51454e+08             1273.28
    2.39              644422          -9.056e+06          2.4769e+08             1271.23
    2.41              635981        -8.87906e+06         2.44061e+08             1267.77
    2.43              627162        -8.70891e+06         2.40571e+08              1262.9
    2.45              617979        -8.54581e+06         2.37225e+08             1256.67
    2.47              608455        -8.38994e+06         2.34022e+08             1249.14
    2.49              598618        -8.24139e+06         2.30967e+08             1240.38
    2.51              588508        -8.10018e+06         2.28058e+08             1230.49
    2.53              578169         -7.9663e+06         2.25298e+08             1219.59
    2.55              567653         -7.8397e+06         2.22688e+08             1207.78
    2.57              557013        -7.72029e+06          2.2023e+08             1195.21
    2.59              546309        -7.60799e+06         2.17925e+08             1182.01
    2.61              535597         -7.5027e+06         2.15777e+08             1168.33
    2.63              524934        -7.40432e+06         2.13789e+08              1154.3
    2.65              514376        -7.31274e+06         2.11962e+08             1140.04
    2.67              503973        -7.22788e+06         2.10301e+08              1125.7
    2.69              493773        -7.14963e+06         2.08808e+08             1111.39
    2.71              483816        -7.07789e+06         2.07485e+08              1097.2
    2.73              474139        -7.01256e+06         2.06335e+08             1083.25
    2.75              464772        -6.95352e+06         2.05358e+08              1069.6
    2.77              455742        -6.90066e+06         2.04555e+08             1056.33
    2.79              447067        -6.85383e+06         2.03925e+08             1043.48
    2.81              438761        -6.81288e+06         2.03466e+08              1031.1
    2.83              430836        -6.77763e+06         2.03174e+08             1019.22
    2.85              423296        -6.74789e+06         2.03045e+08             1007.84
    2.87              416143        -6.72344e+06         2.03073e+08             996.971
    2.89              409374        -6.70401e+06         2.03249e+08             986.602
    2.91              402986        -6.68931e+06         2.03565e+08             976.715
    2.93              396969        -6.67904e+06         2.04008e+08             967.282
    2.95              391314        -6.67284e+06         2.04567e+08             958.268
    2.97              386007        -6.67032e+06         2.05226e+08             949.633
    2.99              381036         -6.6711e+06         2.05971e+08             941.333
    3.01              376385        -6.67473e+06         2.06784e+08             933.321
    3.03              372038        -6.68078e+06         2.07648e+08              925.55
    3.05              367978        -6.68881e+06         2.08546e+08             917.974
    3.07              364188        -6.69838e+06         2.09459e+08              910.55
    3.09              360653        -6.70907e+06         2.10372e+08              903.24
    3.11              357357         -6.7205e+06         2.11268e+08             896.013
    3.13              354286        -6.73234e+06         2.12134e+08             888.844
    3.15              351428        -6.74433e+06         2.12959e+08             881.718
    3.17              348771        -6.75626e+06         2.13735e+08             874.629
    3.19              346309        -6.76804e+06         2.14458e+08             867.583
    3.21              344036        -6.77963e+06         2.15127e+08             860.592
    3.23              341949        -6.79113e+06         2.15744e+08              853.68
    3.25              340047        -6.80269e+06         2.16316e+08             846.877
    3.27              338333        -6.81458e+06         2.16853e+08             840.221
    3.29              336810        -6.82712e+06         2.17369e+08             833.753
    3.31              335487        -6.84072e+06         2.17878e+08             827.519
    3.33              334370        -6.85581e+06         2.18398e+08             821.566
    3.35              333469        -6.87288e+06         2.18947e+08             815.938
    3.37              332795        -6.89243e+06         2.19544e+08             810.679
    3.39              332359        -6.91496e+06         2.20208e+08             805.827
    3.41              332171        -6.94097e+06         2.20957e+08             801.418
    3.43              332244        -6.97094e+06         2.21807e+08             797.476
    3.45              332588        -7.00531e+06         2.22772e+08             794.023
    3.47              333215        -7.04449e+06         2.23867e+08             791.069
    3.49              334135        -7.08884e+06         2.25101e+08             788.618
    3.51              335357        -7.13871e+06         2.26483e+08             786.665
    3.53              336892        -7.19435e+06         2.28019e+08             785.197
    3.55              338747          -7.256e+06         2.29713e+08             784.194
    3.57              340931        -7.32384e+06         2.31565e+08             783.626
    3.59              343451        -7.39803e+06         2.33574e+08             783.458
    3.61              346313        -7.47864e+06         2.35738e+08             783.649
    3.63              349524        -7.56574e+06         2.38051e+08              784.15
    3.65              353089        -7.65934e+06         2.40506e+08             784.908
    3.67              357012        -7.75941e+06         2.43093e+08             785.867
    3.69              361297         -7.8659e+06         2.45802e+08             786.963
    3.71              365945        -7.97868e+06          2.4862e+08             788.131
    3.73              370960        -8.09764e+06         2.51535e+08             789.303
    3.75              376339        -8.22258e+06         2.54532e+08             790.409
    3.77              382082        -8.35331e+06         2.57594e+08             791.379
    3.79              388186        -8.48957e+06         2.60707e+08             792.143
    3.81              394644        -8.63109e+06         2.63855e+08             792.633
    3.83              401450        -8.77756e+06         2.67021e+08             792.784
    3.85              408591        -8.92862e+06         2.70189e+08             792.539
    3.87              416055         -9.0839e+06         2.73346e+08             791.846
    3.89              423822        -9.24297e+06         2.76478e+08             790.664
    3.91              431871        -9.40535e+06         2.79571e+08             788.961
    3.93              440173        -9.57052e+06         2.82616e+08             786.716
    3.95              448694        -9.73785e+06           2.856e+08             783.921
    3.97              457393        -9.90665e+06         2.88513e+08             780.578
    3.99              466222        -1.00761e+07         2.91346e+08             776.702
    4.01              475123        -1.02453e+07         2.94086e+08             772.315
    4.03              484029         -1.0413e+07          2.9672e+08             767.446
    4.05              492865        -1.05782e+07         2.99234e+08              762.13
    4.07              501545        -1.07393e+07         3.01609e+08             756.403
    4.09              509976        -1.08947e+07         3.03822e+08             750.303
    4.11              518055        -1.10426e+07         3.05848e+08             743.863
    4.13              525674        -1.11813e+07         3.07657e+08             737.114
    4.15              532721        -1.13085e+07         3.09218e+08             730.078
    4.17              539080        -1.14223e+07         3.10493e+08             722.775
    4.19              544641        -1.15206e+07         3.11447e+08             715.215
    4.21              549297        -1.16014e+07         3.12043e+08             707.404
    4.23              552949        -1.16629e+07         3.12245e+08             699.341
    4.25              555516        -1.17033e+07         3.12022e+08             691.025
    4.27              556929        -1.17214e+07         3.11346e+08             682.452
    4.29              557141        -1.17163e+07         3.10197e+08             673.616
    4.31              556126        -1.16872e+07         3.08564e+08             664.517
    4.33              553883        -1.16343e+07         3.06442e+08             655.159
    4.35              550433        -1.15577e+07         3.03837e+08             645.549
    4.37              545819        -1.14583e+07         3.00765e+08             635.704
    4.39              540107        -1.13374e+07          2.9725e+08             625.644
    4.41              533378        -1.11964e+07         2.93326e+08             615.398
    4.43              525730        -1.10373e+07         2.89031e+08             605.001
    4.45              517270        -1.08621e+07         2.84411e+08             594.492
    4.47              508114        -1.06733e+07         2.79514e+08             583.915
    4.49              498379         -1.0473e+07         2.74392e+08             573.316
    4.51              488185        -1.02637e+07         2.69096e+08              562.74
    4.53              477644        -1.00477e+07         2.63677e+08             552.234
    4.55              466867        -9.82714e+06         2.58183e+08             541.842
    4.57              455954        -9.60413e+06         2.52659e+08             531.604
    4.59              444998        -9.38053e+06         2.47149e+08             521.558
    4.61              434081        -9.15801e+06         2.41689e+08             511.737
    4.63              423275        -8.93807e+06         2.36312e+08             502.171
    4.65              412643        -8.72199e+06         2.31048e+08             492.885
    4.67              402236        -8.51084e+06          2.2592e+08             483.898
    4.69              392098        -8.30552e+06         2.20949e+08             475.228
    4.71              382264        -8.10676e+06         2.16151e+08             466.886
    4.73              372761        -7.91513e+06         2.11539e+08             458.883
    4.75              363610        -7.73105e+06         2.07123e+08             451.224
    4.77              354824        -7.55483e+06         2.02909e+08             443.913
    4.79              346414        -7.38668e+06         1.98902e+08              436.95
    4.81              338384        -7.22671e+06         1.95104e+08             430.334
    4.83              330736        -7.07495e+06         1.91517e+08             424.062
    4.85              323468        -6.93139e+06         1.88138e+08             418.129
    4.87              316577        -6.79593e+06         1.84967e+08             412.527
    4.89              310056        -6.66846e+06            1.82e+08             407.247
    4.91              303899        -6.54884e+06         1.79232e+08             402.281
    4.93              298097        -6.43687e+06          1.7666e+08             397.616
    4.95              292639        -6.33237e+06         1.74278e+08             393.241
    4.97              287518        -6.23512e+06         1.72079e+08             389.143
    4.99              282721        -6.14489e+06          1.7006e+08             385.308
    5.01              278239        -6.06147e+06         1.68212e+08             381.723
    5.03              274061        -5.98462e+06         1.66529e+08             378.372
    5.05              270176        -5.91411e+06         1.65007e+08             375.243
    5.07              266575        -5.84971e+06         1.63637e+08              372.32
    5.09              263246         -5.7912e+06         1.62414e+08             369.592
    5.11              260179        -5.73833e+06         1.61332e+08             367.046
    5.13              257366        -5.69091e+06         1.60384e+08             364.671
    5.15              254796         -5.6487e+06         1.59565e+08             362.455
    5.17              252459        -5.61149e+06         1.58869e+08             360.388
    5.19              250347        -5.57907e+06          1.5829e+08             358.463
    5.21              248451        -5.55123e+06         1.57822e+08             356.671
    5.23              246761        -5.52776e+06         1.57459e+08             355.005
    5.25              245269        -5.50844e+06         1.57196e+08             353.458
    5.27              243967        -5.49307e+06         1.57028e+08             352.023
    5.29              242847        -5.48146e+06         1.56947e+08             350.696
    5.31              241901        -5.47339e+06          1.5695e+08              349.47
    5.33              241122        -5.46868e+06          1.5703e+08             348.343
    5.35              240502        -5.46715e+06         1.57182e+08             347.308
    5.37              240035        -5.46863e+06         1.57402e+08             346.364
    5.39              239716        -5.47298e+06         1.57685e+08             345.508
    5.41              239541        -5.48008e+06         1.58028e+08             344.738
    5.43              239504        -5.48984e+06          1.5843e+08             344.056
    5.45              239605         -5.5022e+06         1.58888e+08             343.464
    5.47              239841        -5.51714e+06         1.59403e+08             342.964
    5.49              240212        -5.53469e+06         1.59976e+08             342.564
    5.51              240720         -5.5549e+06          1.6061e+08             342.269
    5.53              241367        -5.57787e+06         1.61309e+08              342.09
    5.55              242156        -5.60375e+06         1.62078e+08             342.037
    5.57              243093        -5.63269e+06         1.62925e+08             342.122
    5.59              244184        -5.66492e+06         1.63855e+08             342.359
    5.61              245434        -5.70065e+06         1.64879e+08             342.762
    5.63              246851        -5.74014e+06         1.66004e+08             343.345
    5.65              248444        -5.78365e+06          1.6724e+08             344.123
    5.67              250221        -5.83144e+06         1.68596e+08             345.111
    5.69              252190        -5.88382e+06         1.70083e+08             346.323
    5.71              254361        -5.94105e+06         1.71709e+08             347.772
    5.73              256743        -6.00341e+06         1.73484e+08             349.471
    5.75              259346        -6.07119e+06         1.75417e+08             351.432
    5.77              262178        -6.14466e+06         1.77516e+08             353.666
    5.79              265249        -6.22409e+06         1.79791e+08             356.181
    5.81              268569        -6.30973e+06         1.82248e+08             358.987
    5.83              272147        -6.40184e+06         1.84895e+08              362.09
    5.85              275993        -6.50065e+06         1.87739e+08             365.498
    5.87              280115         -6.6064e+06         1.90786e+08             369.214
    5.89              284524         -6.7193e+06         1.94041e+08             373.244
    5.91              289228        -6.83957e+06          1.9751e+08              377.59
    5.93              294237        -6.96738e+06         2.01196e+08             382.254
    5.95              299558        -7.10292e+06         2.05104e+08             387.238
    5.97              305201        -7.24633e+06         2.09235e+08              392.54
    5.99              311173        -7.39774e+06          2.1359e+08              398.16
    6.01              317483        -7.55724e+06          2.1817e+08             404.094
    6.03              324136         -7.7249e+06         2.22974e+08             410.338
    6.05              331139        -7.90074e+06         2.27998e+08             416.885
    6.07              338498        -8.08474e+06         2.33238e+08             423.727
    6.09              346216        -8.27685e+06         2.38687e+08             430.853
    6.11              354297        -8.47695e+06         2.44337e+08             438.251
    6.13              362744        -8.68488e+06         2.50177e+08             445.905
    6.15              371556        -8.90044e+06         2.56195e+08             453.798
    6.17              380734        -9.12335e+06         2.62376e+08             461.909
    6.19              390278        -9.35333e+06         2.68705e+08             470.218
    6.21              400186        -9.59004e+06         2.75164e+08             478.701
    6.23              410455        -9.83312e+06         2.81735e+08             487.331
    6.25              421082        -1.00822e+07         2.88399e+08             496.083
    6.27              432067        -1.03369e+07         2.95138e+08             504.931
    6.29              443406         -1.0597e+07         3.01936e+08             513.847
    6.31              455099         -1.0862e+07         3.08776e+08             522.807
    6.33              467145        -1.11319e+07         3.15645e+08             531.786
    6.35              479547        -1.14063e+07         3.22532e+08             540.765
    6.37              492304        -1.16851e+07          3.2943e+08             549.724
    6.39              505421        -1.19684e+07         3.36335e+08             558.648
    6.41              518900        -1.22561e+07         3.43245e+08             567.526
    6.43              532742        -1.25483e+07         3.50163e+08             576.351
    6.45              546948         -1.2845e+07          3.5709e+08             585.116
    6.47              561514        -1.31462e+07         3.64032e+08             593.821
    6.49              576430        -1.34519e+07         3.70992e+08             602.464
    6.51              591682        -1.37619e+07         3.77971e+08             611.044
    6.53              607243        -1.40758e+07         3.84968e+08              619.56
    6.55              623079        -1.43932e+07         3.91976e+08             628.006
    6.57              639142        -1.47131e+07         3.98983e+08             636.373
    6.59              655370        -1.50345e+07         4.05969e+08             644.644
    6.61              671684        -1.53559e+07         4.12904e+08             652.794
    6.63              687994        -1.56755e+07         4.19752e+08              660.79
    6.65              704188         -1.5991e+07         4.26467e+08             668.588
    6.67              720145        -1.63001e+07         4.32994e+08             676.134
    6.69              735727        -1.65998e+07         4.39271e+08             683.366
    6.71              750787        -1.68873e+07         4.45229e+08             690.213
    6.73              765169        -1.71593e+07         4.50797e+08             696.596
    6.75              778715        -1.74126e+07         4.55902e+08             702.437
    6.77              791270         -1.7644e+07          4.6047e+08             707.653
    6.79              802685        -1.78505e+07         4.64435e+08             712.168
    6.81              812827        -1.80295e+07         4.67737e+08             715.914
    6.83              821581        -1.81787e+07         4.70326e+08              718.83
    6.85              828856        -1.82964e+07         4.72168e+08             720.875
    6.87              834592        -1.83815e+07         4.73242e+08             722.021
    6.89              838758        -1.84336e+07         4.73543e+08             722.263
    6.91              841359        -1.84532e+07         4.73085e+08             721.613
    6.93              842432        -1.84411e+07         4.71897e+08             720.104
    6.95              842045         -1.8399e+07         4.70022e+08             717.787
    6.97              840294        -1.83292e+07         4.67519e+08             714.729
    6.99              837299        -1.82343e+07         4.64453e+08             711.009
    7.01              833196        -1.81173e+07         4.60899e+08             706.716
    7.03              828131        -1.79815e+07         4.56936e+08             701.943
    7.05              822257        -1.78301e+07         4.52643e+08             696.782
    7.07              815724        -1.76664e+07         4.48096e+08             691.325
    7.09              808674        -1.74932e+07         4.43367e+08             685.656
    7.11              801238        -1.73135e+07         4.38522e+08             679.849
    7.13              793530        -1.71296e+07         4.33616e+08             673.968
    7.15              785644        -1.69434e+07         4.28695e+08             668.064
    7.17              777655        -1.67566e+07         4.23796e+08             662.174
    7.19              769614        -1.65702e+07         4.18942e+08             656.322
    7.21              761551        -1.63849e+07          4.1415e+08              650.52
    7.23              753475        -1.62008e+07         4.09422e+08             644.766
    7.25              745377        -1.60178e+07         4.04756e+08             639.049
    7.27              737231        -1.58355e+07         4.00139e+08              633.35
    7.29              728998        -1.56529e+07         3.95554e+08             627.641
    7.31              720630        -1.54692e+07         3.90979e+08             621.894
    7.33              712075        -1.52834e+07         3.86392e+08             616.074
    7.35              703279        -1.50943e+07         3.81767e+08             610.149
    7.37              694192         -1.4901e+07         3.77081e+08             604.086
    7.39              684770        -1.47026e+07         3.72314e+08             597.858
    7.41              674979        -1.44984e+07          3.6745e+08             591.441
    7.43              664800        -1.42879e+07         3.62479e+08             584.816
    7.45              654226        -1.40711e+07         3.57395e+08             577.971
    7.47              643265         -1.3848e+07         3.52199e+08             570.901
    7.49              631943        -1.36191e+07         3.46899e+08             563.607
    7.51              620296        -1.33851e+07         3.41509e+08             556.095
    7.53              608375        -1.31468e+07         3.36047e+08             548.381
    7.55              596239        -1.29055e+07         3.30537e+08             540.482
    7.57              583956        -1.26623e+07         3.25003e+08             532.423
    7.59              571596        -1.24187e+07         3.19476e+08             524.233
    7.61              559236        -1.21762e+07         3.13987e+08             515.943
    7.63              546948         -1.1936e+07         3.08565e+08              507.59
    7.65              534804        -1.16997e+07         3.03243e+08              499.21
    7.67              522872        -1.14686e+07          2.9805e+08             490.842
    7.69              511215        -1.12439e+07         2.93015e+08             482.525
    7.71              499889        -1.10268e+07         2.88165e+08             474.298
    7.73              488945        -1.08183e+07         2.83526e+08             466.198
    7.75              478426        -1.06192e+07         2.79119e+08             458.263
    7.77              468370        -1.04305e+07         2.74964e+08             450.526
    7.79              458807        -1.02527e+07         2.71081e+08             443.019
    7.81              449762        -1.00865e+07         2.67484e+08              435.77
    7.83              441256        -9.93223e+06         2.64186e+08             428.804
    7.85              433302        -9.79032e+06           2.612e+08             422.143
    7.87              425912        -9.66105e+06         2.58534e+08             415.805
    7.89              419092        -9.54463e+06         2.56196e+08             409.803
    7.91              412846        -9.44119e+06         2.54192e+08             404.148
    7.93              407173        -9.35082e+06         2.52527e+08             398.847
    7.95              402073        -9.27354e+06         2.51203e+08             393.904
    7.97              397541        -9.20934e+06         2.50222e+08             389.318
    7.99              393569        -9.15815e+06         2.49585e+08             385.087
    8.01              390150        -9.11985e+06         2.49291e+08             381.205
    8.03              387273        -9.09431e+06         2.49338e+08             377.664
    8.05              384925        -9.08131e+06         2.49723e+08             374.453
    8.07              383093         -9.0806e+06          2.5044e+08             371.558
    8.09              381758        -9.09189e+06         2.51484e+08             368.962
    8.11              380901         -9.1148e+06         2.52846e+08             366.648
    8.13              380502        -9.14891e+06         2.54518e+08             364.593
    8.15              380533         -9.1937e+06         2.56487e+08             362.776
    8.17              380968         -9.2486e+06         2.58739e+08             361.169
    8.19              381774        -9.31291e+06         2.61257e+08             359.746
    8.21              382916        -9.38586e+06         2.64021e+08             358.475
    8.23              384355        -9.46657e+06          2.6701e+08             357.324
    8.25              386047        -9.55404e+06         2.70196e+08             356.259
    8.27              387947        -9.64716e+06         2.73551e+08             355.244
    8.29              390002         -9.7447e+06         2.77042e+08             354.244
    8.31              392159        -9.84532e+06         2.80632e+08             353.219
    8.33              394361        -9.94756e+06         2.84281e+08             352.135
    8.35              396548        -1.00499e+07         2.87944e+08             350.955
    8.37              398659        -1.01506e+07         2.91576e+08             349.643
    8.39              400632         -1.0248e+07         2.95125e+08              348.17
    8.41              402404        -1.03404e+07         2.98539e+08             346.506
    8.43              403914        -1.04259e+07         3.01764e+08             344.627
    8.45              405102        -1.05028e+07         3.04745e+08             342.515
    8.47              405912        -1.05692e+07         3.07426e+08             340.155
    8.49              406291        -1.06235e+07         3.09756e+08              337.54
    8.51              406193        -1.06642e+07         3.11684e+08             334.668
    8.53              405579        -1.06899e+07         3.13164e+08             331.544
    8.55              404416        -1.06994e+07         3.14156e+08             328.178
    8.57              402683        -1.06918e+07          3.1463e+08             324.587
    8.59              400366        -1.06665e+07         3.14563e+08              320.79
    8.61              397464        -1.06232e+07         3.13942e+08             316.812
    8.63              393986         -1.0562e+07         3.12767e+08             312.682
    8.65              389952        -1.04833e+07         3.11046e+08             308.428
    8.67              385393        -1.03879e+07         3.08802e+08             304.082
    8.69              380349        -1.02769e+07         3.06065e+08             299.675
    8.71              374868        -1.01516e+07         3.02877e+08              295.24
    8.73              369005        -1.00136e+07         2.99285e+08             290.807
    8.75              362821        -9.86475e+06         2.95345e+08             286.404
    8.77              356378         -9.7069e+06         2.91114e+08             282.059
    8.79              349740        -9.54202e+06         2.86653e+08             277.797
    8.81              342972        -9.37207e+06         2.82024e+08              273.64
    8.83              336134        -9.19896e+06         2.77288e+08             269.608
    8.85              329286        -9.02452e+06         2.72501e+08             265.719
    8.87              322482        -8.85048e+06         2.67719e+08             261.987
    8.89              315772         -8.6784e+06         2.62991e+08             258.425
    8.91              309200        -8.50972e+06         2.58363e+08             255.044
    8.93              302805        -8.34568e+06         2.53876e+08             251.852
    8.95              296621        -8.18738e+06         2.49564e+08             248.856
    8.97              290677        -8.03577e+06         2.45459e+08             246.059
    8.99              284995        -7.89163e+06         2.41587e+08             243.465
    9.01              279595        -7.75561e+06         2.37968e+08             241.076
    9.03              274492        -7.62821e+06         2.34621e+08             238.891
    9.05              269697        -7.50985e+06         2.31558e+08             236.911
    9.07              265218         -7.4008e+06         2.28791e+08             235.133
    9.09              261059        -7.30128e+06         2.26327e+08             233.554
    9.11              257222        -7.21137e+06         2.24169e+08             232.171
    9.13              253707        -7.13112e+06          2.2232e+08             230.979
    9.15              250511        -7.06047e+06          2.2078e+08             229.972
    9.17              247629         -6.9993e+06         2.19545e+08             229.147
    9.19              245053        -6.94744e+06         2.18611e+08             228.495
    9.21              242776        -6.90462e+06          2.1797e+08              228.01
    9.23              240784        -6.87051e+06         2.17612e+08             227.686
    9.25              239066        -6.84472e+06         2.17525e+08             227.515
    9.27              237604        -6.82677e+06         2.17695e+08             227.489
    9.29              236382        -6.81609e+06         2.18103e+08             227.599
    9.31              235379        -6.81204e+06          2.1873e+08             227.839
    9.33              234570        -6.81388e+06          2.1955e+08               228.2
    9.35              233931        -6.82077e+06         2.20537e+08             228.674
    9.37              233432        -6.83178e+06         2.21661e+08             229.252
    9.39              233041        -6.84588e+06         2.22888e+08             229.926
    9.41              232725        -6.86195e+06          2.2418e+08             230.689
    9.43              232447        -6.87881e+06         2.25498e+08             231.532
    9.45              232169         -6.8952e+06         2.26801e+08             232.447
    9.47              231852        -6.90981e+06         2.28044e+08             233.426
    9.49              231456        -6.92134e+06         2.29183e+08             234.462
    9.51              230943        -6.92849e+06         2.30175e+08             235.547
    9.53              230275        -6.93003e+06         2.30976e+08             236.671
    9.55              229419        -6.92478e+06         2.31548e+08             237.828
    9.57              228343        -6.91175e+06         2.31855e+08             239.008
    9.59              227023        -6.89005e+06         2.31866e+08             240.203
    9.61              225438        -6.85903e+06         2.31557e+08             241.404
    9.63              223577        -6.81824e+06         2.30912e+08             242.601
    9.65              221433        -6.76745e+06         2.29922e+08             243.785
    9.67              219007        -6.70667e+06         2.28584e+08             244.946
    9.69              216306        -6.63614e+06         2.26904e+08             246.073
    9.71              213345        -6.55629e+06         2.24894e+08             247.156
    9.73              210143        -6.46774e+06         2.22574e+08             248.183
    9.75              206722        -6.37126e+06         2.19967e+08             249.144
    9.77              203110        -6.26771e+06         2.17099e+08             250.026
    9.79              199335        -6.15803e+06            2.14e+08             250.816
    9.81              195427        -6.04321e+06           2.107e+08             251.501
    9.83              191416        -5.92421e+06          2.0723e+08             252.066
    9.85              187330        -5.80198e+06         2.03618e+08             252.496
    9.87              183198        -5.67741e+06         1.99892e+08             252.775
    9.89              179044        -5.55133e+06         1.96078e+08             252.885
    9.91              174891        -5.42447e+06         1.92196e+08             252.809
    9.93              170758        -5.29747e+06         1.88268e+08              252.53
    9.95              166664        -5.17091e+06         1.84307e+08             252.029
    9.97              162623        -5.04524e+06         1.80329e+08             251.292
    9.99              158648        -4.92087e+06         1.76345e+08             250.303
   10.01              154747         -4.7981e+06         1.72364e+08             249.051
   10.03              150929        -4.67722e+06         1.68393e+08             247.528
   10.05              147201        -4.55842e+06         1.64441e+08             245.729
   10.07              143566        -4.44187e+06         1.60512e+08             243.655
   10.09              140028        -4.32772e+06         1.56613e+08             241.311
   10.11              136589        -4.21608e+06         1.52751e+08             238.706
   10.13              133250        -4.10704e+06          1.4893e+08             235.854
   10.15              130013        -4.00069e+06         1.45158e+08             232.775
   10.17              126878        -3.89709e+06          1.4144e+08             229.489
   10.19              123844        -3.79631e+06         1.37784e+08             226.021
   10.21              120910        -3.69839e+06         1.34195e+08             222.398
   10.23              118076        -3.60338e+06         1.30679e+08             218.648
   10.25              115340         -3.5113e+06         1.27243e+08             214.799
   10.27              112701        -3.42219e+06         1.23892e+08             210.877
   10.29              110157        -3.33604e+06         1.20631e+08             206.911
   10.31              107706        -3.25285e+06         1.17464e+08             202.924
   10.33              105346        -3.17262e+06         1.14393e+08             198.939
   10.35              103074        -3.09531e+06         1.11422e+08             194.979
   10.37              100889        -3.02088e+06         1.08553e+08              191.06
   10.39             98787.6         -2.9493e+06         1.05785e+08             187.199
   10.41             96767.3        -2.88051e+06          1.0312e+08             183.409
   10.43             94825.3        -2.81443e+06         1.00556e+08             179.703
   10.45             92959.1        -2.75101e+06         9.80939e+07             176.087
   10.47             91165.9        -2.69016e+06         9.57304e+07             172.571
   10.49             89442.7         -2.6318e+06         9.34639e+07             169.158
   10.51               87787        -2.57584e+06         9.12919e+07             165.853
   10.53             86195.9         -2.5222e+06         8.92115e+07             162.656
   10.55             84666.6        -2.47078e+06         8.72195e+07             159.569
   10.57             83196.4        -2.42148e+06         8.53127e+07             156.591
   10.59             81782.6        -2.37421e+06         8.34873e+07             153.721
   10.61             80422.6        -2.32887e+06         8.17398e+07             150.955
   10.63             79113.7        -2.28538e+06         8.00662e+07             148.292
   10.65             77853.4        -2.24362e+06         7.84627e+07             145.728
   10.67             76639.2         -2.2035e+06         7.69255e+07             143.257
   10.69             75468.7        -2.16494e+06         7.54506e+07             140.877
   10.71             74339.6        -2.12785e+06         7.40345e+07             138.583
   10.73             73249.6        -2.09213e+06         7.26733e+07              136.37
   10.75             72196.6         -2.0577e+06         7.13636e+07             134.233
   10.77             71178.7         -2.0245e+06         7.01022e+07             132.168
   10.79               70194        -1.99243e+06          6.8886e+07             130.171
   10.81             69240.8        -1.96145e+06         6.77121e+07             128.239
   10.83             68317.5        -1.93148e+06         6.65782e+07             126.366
   10.85             67422.8        -1.90249e+06          6.5482e+07             124.552
   10.87             66555.3        -1.87441e+06         6.44217e+07             122.792
   10.89               65714        -1.84721e+06         6.33956e+07             121.086
   10.91               64898        -1.82086e+06         6.24025e+07             119.431
   10.93             64106.3        -1.79533e+06         6.14413e+07             117.826
   10.95             63338.3         -1.7706e+06         6.05112e+07             116.271
   10.97             62593.2        -1.74664e+06         5.96115e+07             114.766
   10.99             61870.6        -1.72345e+06         5.87417e+07             113.309
   11.01               61170        -1.70099e+06         5.79015e+07             111.902
   11.03             60490.8        -1.67928e+06         5.70904e+07             110.545
   11.05             59832.6        -1.65828e+06         5.63083e+07             109.237
   11.07             59195.2        -1.63801e+06         5.55549e+07              107.98
   11.09             58578.1        -1.61843e+06           5.483e+07             106.772
   11.11             57980.9        -1.59956e+06         5.41333e+07             105.616
   11.13             57403.5        -1.58137e+06         5.34648e+07              104.51
   11.15             56845.6        -1.56387e+06         5.28241e+07             103.456
   11.17             56306.9        -1.54705e+06         5.22112e+07             102.452
   11.19             55787.1         -1.5309e+06          5.1626e+07               101.5
   11.21             55286.3        -1.51542e+06         5.10682e+07               100.6
   11.23             54804.2         -1.5006e+06         5.05378e+07             99.7507
   11.25             54340.8        -1.48645e+06         5.00348e+07             98.9532
   11.27             53896.1        -1.47297e+06         4.95593e+07             98.2075
   11.29               53470        -1.46015e+06         4.91111e+07             97.5137
   11.31             53062.5          -1.448e+06         4.86905e+07              96.872
   11.33             52673.9        -1.43652e+06         4.82976e+07             96.2826
   11.35               52304        -1.42571e+06         4.79325e+07             95.7458
   11.37             51953.2        -1.41559e+06         4.75954e+07              95.262
   11.39             51621.4        -1.40615e+06         4.72866e+07             94.8316
   11.41             51308.8         -1.3974e+06         4.70064e+07             94.4552
   11.43             51015.6        -1.38935e+06         4.67549e+07             94.1331
   11.45               50742        -1.38201e+06         4.65326e+07             93.8661
   11.47             50488.1        -1.37538e+06         4.63396e+07             93.6547
   11.49             50254.1        -1.36946e+06         4.61764e+07             93.4995
   11.51             50040.1        -1.36428e+06         4.60433e+07             93.4012
   11.53             49846.3        -1.35982e+06         4.59406e+07             93.3604
   11.55             49672.8         -1.3561e+06         4.58686e+07             93.3777
   11.57             49519.7        -1.35313e+06         4.58276e+07             93.4536
   11.59             49387.1        -1.35091e+06         4.58179e+07             93.5886
   11.61             49275.1        -1.34944e+06         4.58397e+07             93.7829
   11.63             49183.5        -1.34872e+06         4.58932e+07             94.0367
   11.65             49112.4        -1.34876e+06         4.59785e+07               94.35
   11.67             49061.6        -1.34955e+06         4.60955e+07             94.7226
   11.69             49030.8        -1.35108e+06         4.62441e+07             95.1537
   11.71             49019.5        -1.35335e+06          4.6424e+07             95.6425
   11.73             49027.4        -1.35633e+06         4.66347e+07             96.1876
   11.75             49053.7        -1.36002e+06         4.68756e+07              96.787
   11.77             49097.6        -1.36438e+06         4.71456e+07             97.4384
   11.79             49157.9        -1.36938e+06         4.74435e+07             98.1387
   11.81             49233.4        -1.37498e+06         4.77677e+07              98.884
   11.83             49322.5        -1.38113e+06         4.81161e+07             99.6699
   11.85             49423.4        -1.38776e+06         4.84865e+07             100.491
   11.87               49534        -1.39481e+06         4.88759e+07              101.34
   11.89               49652        -1.40219e+06         4.92812e+07             102.211
   11.91             49774.8        -1.40983e+06         4.96986e+07             103.096
   11.93             49899.4        -1.41761e+06         5.01239e+07             103.985
   11.95               50023        -1.42543e+06         5.05526e+07             104.869
   11.97             50142.3        -1.43317e+06         5.09796e+07             105.737
   11.99               50254        -1.44072e+06         5.13998e+07             106.578
   12.01             50354.9        -1.44794e+06         5.18076e+07             107.381
   12.03             50441.8        -1.45472e+06         5.21975e+07             108.134
   12.05             50511.5        -1.46094e+06         5.25638e+07             108.827
   12.07             50561.2        -1.46646e+06         5.29011e+07             109.448
   12.09             50588.4        -1.47119e+06         5.32039e+07             109.988
   12.11             50590.7        -1.47502e+06         5.34675e+07             110.437
   12.13             50566.4        -1.47786e+06         5.36872e+07             110.788
   12.15             50514.1        -1.47963e+06         5.38591e+07             111.035
   12.17             50432.8        -1.48028e+06         5.39799e+07             111.172
   12.19               50322        -1.47975e+06         5.40468e+07             111.197
   12.21             50181.5        -1.47801e+06         5.40578e+07             111.109
   12.23             50011.7        -1.47505e+06         5.40117e+07             110.907
   12.25             49813.1        -1.47086e+06          5.3908e+07             110.593
   12.27             49586.8        -1.46547e+06         5.37467e+07             110.172
   12.29             49334.1        -1.45889e+06          5.3529e+07             109.647
   12.31             49056.6        -1.45118e+06         5.32565e+07             109.024
   12.33             48756.1        -1.44239e+06         5.29315e+07             108.309
   12.35             48434.8        -1.43258e+06         5.25572e+07             107.511
   12.37               48095        -1.42186e+06         5.21372e+07             106.638
   12.39             47739.1         -1.4103e+06         5.16759e+07             105.698
   12.41             47369.9        -1.39802e+06          5.1178e+07             104.699
   12.43               46990        -1.38513e+06         5.06487e+07             103.652
   12.45             46602.4        -1.37174e+06         5.00933e+07             102.566
   12.47             46209.9        -1.35798e+06         4.95175e+07              101.45
   12.49             45815.4        -1.34396e+06         4.89271e+07             100.312
   12.51             45421.6        -1.32982e+06         4.83277e+07             99.1622
   12.53             45031.2        -1.31568e+06         4.77246e+07             98.0085
   12.55             44646.8        -1.30163e+06         4.71233e+07             96.8588
   12.57             44270.8        -1.28779e+06         4.65285e+07             95.7206
   12.59             43905.2        -1.27426e+06         4.59448e+07             94.6006
   12.61             43552.2        -1.26113e+06         4.53762e+07             93.5051
   12.63             43213.3        -1.24847e+06         4.48264e+07             92.4394
   12.65             42890.3        -1.23636e+06         4.42986e+07             91.4084
   12.67             42584.2        -1.22485e+06         4.37954e+07              90.416
   12.69             42296.4        -1.21399e+06         4.33191e+07             89.4655
   12.71             42027.6        -1.20382e+06         4.28714e+07             88.5593
   12.73             41778.6        -1.19439e+06         4.24538e+07             87.6993
   12.75             41549.9         -1.1857e+06         4.20671e+07             86.8865
   12.77             41342.1        -1.17778e+06         4.17121e+07             86.1212
   12.79             41155.3        -1.17065e+06         4.13891e+07             85.4033
   12.81             40989.6        -1.16429e+06         4.10979e+07             84.7316
   12.83             40845.3        -1.15872e+06         4.08385e+07             84.1049
   12.85             40722.1        -1.15392e+06         4.06102e+07             83.5209
   12.87               40620        -1.14989e+06         4.04123e+07             82.9774
   12.89             40538.6        -1.14661e+06         4.02438e+07             82.4713
   12.91             40477.8        -1.14406e+06         4.01036e+07             81.9995
   12.93             40437.1        -1.14222e+06         3.99904e+07             81.5585
   12.95             40415.9        -1.14107e+06         3.99028e+07             81.1448
   12.97             40413.9        -1.14056e+06         3.98391e+07             80.7545
   12.99             40430.3        -1.14068e+06         3.97975e+07             80.3841
   13.01             40464.5        -1.14138e+06         3.97764e+07             80.0297
   13.03             40515.7        -1.14263e+06         3.97737e+07             79.6877
   13.05             40583.2        -1.14438e+06         3.97873e+07             79.3545
   13.07             40666.1         -1.1466e+06         3.98153e+07             79.0269
   13.09             40763.5        -1.14923e+06         3.98555e+07             78.7014
   13.11             40874.5        -1.15224e+06         3.99057e+07             78.3752
   13.13             40998.3        -1.15557e+06         3.99638e+07             78.0452
   13.15             41133.9        -1.15918e+06         4.00279e+07             77.7091
   13.17             41280.6        -1.16303e+06         4.00959e+07             77.3644
   13.19             41437.7        -1.16709e+06         4.01661e+07             77.0091
   13.21             41604.7        -1.17132e+06         4.02372e+07             76.6416
   13.23             41781.1         -1.1757e+06         4.03079e+07             76.2606
   13.25               41967        -1.18022e+06         4.03775e+07             75.8656
   13.27             42162.2        -1.18486e+06         4.04457e+07             75.4562
   13.29             42367.1        -1.18964e+06         4.05125e+07             75.0327
   13.31             42582.2        -1.19457e+06         4.05784e+07             74.5962
   13.33             42808.3        -1.19968e+06         4.06445e+07             74.1481
   13.35             43046.4        -1.20499e+06          4.0712e+07             73.6903
   13.37             43297.5        -1.21055e+06         4.07827e+07             73.2254
   13.39             43562.9        -1.21641e+06         4.08583e+07             72.7561
   13.41             43843.9        -1.22261e+06          4.0941e+07             72.2855
   13.43             44141.8        -1.22921e+06         4.10328e+07             71.8168
   13.45             44457.8        -1.23624e+06         4.11357e+07             71.3534
   13.47             44793.1        -1.24376e+06         4.12514e+07             70.8984
   13.49             45148.5        -1.25179e+06         4.13816e+07             70.4549
   13.51             45524.7        -1.26037e+06         4.15275e+07             70.0255
   13.53             45922.2         -1.2695e+06         4.16896e+07             69.6127
   13.55             46340.9         -1.2792e+06         4.18683e+07             69.2182
   13.57             46780.6        -1.28944e+06         4.20632e+07             68.8435
   13.59             47240.6         -1.3002e+06         4.22733e+07             68.4893
   13.61             47719.6        -1.31142e+06          4.2497e+07             68.1558
   13.63             48216.1        -1.32306e+06         4.27322e+07             67.8426
   13.65             48728.1        -1.33504e+06         4.29761e+07             67.5489
   13.67             49253.2        -1.34726e+06         4.32255e+07              67.273
   13.69             49788.8        -1.35962e+06         4.34764e+07             67.0128
   13.71             50331.7          -1.372e+06         4.37247e+07             66.7659
   13.73             50878.7         -1.3843e+06          4.3966e+07             66.5291
   13.75             51426.5        -1.39637e+06         4.41958e+07             66.2993
   13.77             51971.7         -1.4081e+06         4.44095e+07             66.0728
   13.79             52510.9        -1.41936e+06         4.46028e+07             65.8458
   13.81             53041.1        -1.43005e+06         4.47717e+07             65.6146
   13.83             53559.4        -1.44007e+06         4.49128e+07             65.3754
   13.85             54063.3        -1.44933e+06         4.50232e+07             65.1245
   13.87             54550.7        -1.45778e+06         4.51009e+07             64.8587
   13.89             55019.8        -1.46535e+06         4.51444e+07              64.575
   13.91             55469.4        -1.47204e+06         4.51534e+07             64.2708
   13.93             55898.3        -1.47783e+06          4.5128e+07             63.9442
   13.95             56305.9        -1.48272e+06         4.50691e+07             63.5937
   13.97             56691.4        -1.48673e+06         4.49782e+07             63.2186
   13.99               57054        -1.48988e+06         4.48571e+07             62.8186
   14.01             57392.9        -1.49221e+06          4.4708e+07             62.3943
   14.03             57706.9        -1.49373e+06          4.4533e+07             61.9466
   14.05             57994.5        -1.49445e+06         4.43341e+07             61.4771
   14.07             58253.5        -1.49439e+06         4.41135e+07             60.9877
   14.09             58481.8        -1.49355e+06         4.38726e+07              60.481
   14.11             58676.4         -1.4919e+06          4.3613e+07             59.9597
   14.13             58834.2        -1.48943e+06         4.33355e+07             59.4266
   14.15             58952.1        -1.48611e+06         4.30411e+07             58.8851
   14.17             59026.9        -1.48189e+06         4.27301e+07             58.3382
   14.19             59055.4        -1.47676e+06          4.2403e+07             57.7892
   14.21             59035.4        -1.47068e+06         4.20601e+07             57.2412
   14.23               58965        -1.46364e+06         4.17019e+07             56.6973
   14.25             58843.2        -1.45563e+06         4.13288e+07             56.1604
   14.27               58670        -1.44667e+06         4.09418e+07             55.6331
   14.29             58446.7        -1.43679e+06          4.0542e+07             55.1181
   14.31             58175.5        -1.42606e+06          4.0131e+07             54.6175
   14.33             57859.8        -1.41454e+06         3.97105e+07             54.1334
   14.35             57503.9        -1.40234e+06         3.92829e+07             53.6675
   14.37             57113.2        -1.38958e+06         3.88506e+07             53.2214
   14.39             56693.6        -1.37638e+06         3.84164e+07             52.7964
   14.41             56251.4        -1.36287e+06         3.79833e+07             52.3936
   14.43             55793.6        -1.34921e+06         3.75541e+07             52.0139
   14.45             55326.8        -1.33553e+06         3.71319e+07             51.6579
   14.47             54857.9        -1.32198e+06         3.67197e+07             51.3263
   14.49             54393.4        -1.30869e+06         3.63202e+07             51.0194
   14.51             53939.4         -1.2958e+06         3.59359e+07             50.7375
   14.53             53501.9        -1.28342e+06         3.55694e+07             50.4806
   14.55             53086.1        -1.27167e+06         3.52228e+07             50.2489
   14.57             52696.6        -1.26063e+06         3.48979e+07             50.0422
   14.59             52337.9         -1.2504e+06         3.45966e+07             49.8606
   14.61             52013.7        -1.24105e+06         3.43201e+07             49.7038
   14.63             51727.2        -1.23265e+06         3.40699e+07             49.5717
   14.65             51481.3        -1.22525e+06         3.38469e+07             49.4642
   14.67             51278.5        -1.21891e+06          3.3652e+07             49.3809
   14.69             51120.9        -1.21366e+06          3.3486e+07             49.3218
   14.71             51010.4        -1.20955e+06         3.33495e+07             49.2867
   14.73             50948.7        -1.20659e+06          3.3243e+07             49.2753
   14.75             50937.2        -1.20483e+06          3.3167e+07             49.2876
   14.77             50977.2        -1.20427e+06          3.3122e+07             49.3235
   14.79               51070        -1.20496e+06         3.31082e+07              49.383
   14.81             51216.6         -1.2069e+06         3.31261e+07             49.4659
   14.83             51418.3        -1.21012e+06          3.3176e+07             49.5724
   14.85             51676.2        -1.21464e+06         3.32583e+07             49.7024
   14.87             51991.4        -1.22048e+06         3.33735e+07             49.8562
   14.89             52365.1        -1.22767e+06          3.3522e+07             50.0339
   14.91             52798.6        -1.23623e+06         3.37043e+07             50.2358
   14.93             53293.2        -1.24619e+06         3.39209e+07             50.4623
   14.95             53850.3        -1.25757e+06         3.41725e+07             50.7139
   14.97             54471.3        -1.27041e+06         3.44597e+07              50.991
   14.99             55157.7        -1.28473e+06         3.47833e+07             51.2945
   15.01             55911.3        -1.30058e+06          3.5144e+07             51.6249
   15.03             56733.6        -1.31798e+06         3.55426e+07             51.9833
   15.05             57626.3        -1.33697e+06           3.598e+07             52.3706
   15.07             58591.2         -1.3576e+06         3.64572e+07             52.7879
   15.09             59629.8        -1.37989e+06          3.6975e+07             53.2364
   15.11               60744        -1.40388e+06         3.75343e+07             53.7171
   15.13             61935.2        -1.42961e+06          3.8136e+07             54.2315
   15.15             63204.7         -1.4571e+06         3.87809e+07             54.7806
   15.17             64553.8        -1.48638e+06         3.94697e+07             55.3658
   15.19             65983.1        -1.51748e+06          4.0203e+07             55.9881
   15.21             67493.3         -1.5504e+06          4.0981e+07             56.6488
   15.23               69084        -1.58514e+06          4.1804e+07             57.3489
   15.25             70754.6        -1.62169e+06         4.26718e+07              58.089
   15.27             72503.6        -1.66001e+06         4.35837e+07               58.87
   15.29             74328.4        -1.70006e+06         4.45389e+07             59.6922
   15.31             76225.5        -1.74175e+06         4.55357e+07             60.5559
   15.33             78189.9          -1.785e+06          4.6572e+07              61.461
   15.35             80215.4        -1.82965e+06          4.7645e+07             62.4069
   15.37             82293.8        -1.87556e+06         4.87511e+07             63.3929
   15.39             84415.5        -1.92249e+06         4.98857e+07             64.4178
   15.41             86568.5        -1.97022e+06         5.10436e+07               65.48
   15.43               88739        -2.01844e+06         5.22182e+07             66.5772
   15.45               90911        -2.06682e+06         5.34023e+07              67.707
   15.47             93066.2        -2.11497e+06         5.45875e+07             68.8663
   15.49             95184.6        -2.16247e+06         5.57645e+07             70.0515
   15.51             97244.1        -2.20884e+06         5.69231e+07             71.2588
   15.53             99221.2         -2.2536e+06         5.80525e+07             72.4838
   15.55              101091        -2.29623e+06         5.91413e+07             73.7217
   15.57              102829        -2.33619e+06          6.0178e+07             74.9676
   15.59              104410        -2.37295e+06         6.11509e+07             76.2162
   15.61              105810        -2.40602e+06         6.20488e+07              77.462
   15.63              107006        -2.43491e+06         6.28613e+07             78.6994
   15.65              107979         -2.4592e+06          6.3579e+07             79.9228
   15.67              108713        -2.47855e+06         6.41937e+07             81.1266
   15.69              109195        -2.49267e+06         6.46991e+07             82.3051
   15.71              109417         -2.5014e+06         6.50905e+07              83.453
   15.73              109377        -2.50464e+06         6.53656e+07              84.565
   15.75              109075        -2.50242e+06         6.55236e+07             85.6362
   15.77              108519        -2.49485e+06         6.55661e+07              86.662
   15.79              107720        -2.48213e+06         6.54964e+07             87.6384
   15.81              106692        -2.46454e+06         6.53196e+07             88.5619
   15.83              105454        -2.44246e+06         6.50422e+07               89.43
   15.85              104028        -2.41627e+06         6.46719e+07              90.241
   15.87              102434        -2.38643e+06         6.42174e+07             90.9943
   15.89              100697        -2.35341e+06          6.3688e+07             91.6903
   15.91             98841.2        -2.31769e+06         6.30935e+07             92.3306
   15.93             96889.4        -2.27976e+06          6.2444e+07             92.9182
   15.95             94864.6        -2.24008e+06         6.17495e+07             93.4568
   15.97             92788.2        -2.19911e+06         6.10197e+07             93.9511
   15.99               90680        -2.15726e+06         6.02643e+07             94.4067
   16.01             88558.1        -2.11494e+06         5.94922e+07             94.8293
   16.03             86438.8        -2.07249e+06         5.87117e+07             95.2248
   16.05             84336.3        -2.03024e+06         5.79306e+07             95.5988
   16.07               82263        -1.98847e+06         5.71556e+07             95.9564
   16.09             80229.1        -1.94741e+06         5.63927e+07             96.3016
   16.11             78243.4        -1.90728e+06         5.56469e+07             96.6374
   16.13             76312.8        -1.86823e+06         5.49221e+07             96.9651
   16.15             74442.8        -1.83039e+06         5.42214e+07             97.2846
   16.17             72637.3        -1.79386e+06         5.35467e+07             97.5941
   16.19               70899         -1.7587e+06         5.28992e+07             97.8901
   16.21             69229.7        -1.72495e+06         5.22788e+07             98.1673
   16.23               67630        -1.69261e+06         5.16851e+07             98.4191
   16.25             66099.9        -1.66167e+06         5.11166e+07             98.6378
   16.27             64638.6        -1.63211e+06         5.05714e+07             98.8146
   16.29               63245        -1.60388e+06         5.00472e+07               98.94
   16.31             61917.2        -1.57694e+06         4.95411e+07             99.0049
   16.33             60653.6        -1.55121e+06         4.90505e+07             98.9999
   16.35             59451.9        -1.52664e+06         4.85725e+07             98.9169
   16.37             58310.1        -1.50317e+06         4.81045e+07             98.7485
   16.39             57226.1        -1.48073e+06         4.76442e+07             98.4894
   16.41             56197.8        -1.45929e+06         4.71899e+07             98.1356
   16.43             55223.4        -1.43879e+06         4.67401e+07             97.6856
   16.45             54301.1         -1.4192e+06         4.62942e+07             97.1399
   16.47             53429.6         -1.4005e+06          4.5852e+07             96.5011
   16.49             52607.3        -1.38268e+06         4.54141e+07             95.7741
   16.51             51833.4        -1.36574e+06         4.49816e+07             94.9655
   16.53             51106.9        -1.34968e+06         4.45563e+07             94.0836
   16.55             50427.3        -1.33452e+06         4.41401e+07              93.138
   16.57             49793.9        -1.32028e+06         4.37357e+07             92.1395
   16.59             49206.6          -1.307e+06         4.33458e+07             91.0992
   16.61               48665        -1.29471e+06         4.29736e+07             90.0288
   16.63             48169.3        -1.28344e+06          4.2622e+07             88.9398
   16.65             47719.3        -1.27324e+06         4.22943e+07             87.8437
   16.67             47315.2        -1.26416e+06         4.19936e+07             86.7513
   16.69             46957.1        -1.25622e+06         4.17228e+07             85.6729
   16.71             46645.2        -1.24946e+06         4.14848e+07              84.618
   16.73             46379.6        -1.24393e+06         4.12823e+07             83.5951
   16.75             46160.6        -1.23966e+06         4.11177e+07             82.6119
   16.77             45988.2        -1.23668e+06         4.09933e+07             81.6753
   16.79             45862.7        -1.23502e+06          4.0911e+07             80.7911
   16.81               45784         -1.2347e+06         4.08725e+07             79.9642
   16.83             45752.3        -1.23574e+06         4.08794e+07             79.1988
   16.85             45767.5        -1.23817e+06         4.09329e+07             78.4982
   16.87             45829.4        -1.24198e+06          4.1034e+07             77.8652
   16.89             45937.8        -1.24718e+06         4.11833e+07             77.3018
   16.91             46092.3        -1.25378e+06         4.13812e+07             76.8093
   16.93             46292.1        -1.26177e+06          4.1628e+07             76.3888
   16.95             46536.7        -1.27112e+06         4.19235e+07             76.0408
   16.97             46824.7        -1.28182e+06         4.22671e+07             75.7654
   16.99             47154.9        -1.29383e+06         4.26579e+07             75.5625
   17.01             47525.6        -1.30709e+06         4.30947e+07             75.4316
   17.03             47934.5        -1.32156e+06         4.35758e+07              75.372
   17.05             48379.1        -1.33715e+06         4.40988e+07             75.3828
   17.07             48856.4        -1.35378e+06         4.46611e+07             75.4628
   17.09             49362.7        -1.37133e+06         4.52593e+07             75.6106
   17.11             49893.9        -1.38968e+06         4.58895e+07             75.8249
   17.13             50445.2        -1.40869e+06         4.65472e+07             76.1037
   17.15             51011.3        -1.42818e+06         4.72271e+07             76.4453
   17.17             51586.4        -1.44798e+06         4.79235e+07             76.8473
   17.19             52164.2         -1.4679e+06         4.86302e+07             77.3073
   17.21             52738.1        -1.48772e+06         4.93402e+07             77.8225
   17.23             53301.1        -1.50722e+06         5.00463e+07             78.3898
   17.25             53846.1        -1.52617e+06         5.07412e+07             79.0056
   17.27             54366.1        -1.54436e+06         5.14171e+07             79.6658
   17.29             54854.5        -1.56156e+06         5.20666e+07              80.366
   17.31             55304.8        -1.57756e+06         5.26822e+07             81.1012
   17.33             55711.5        -1.59216e+06          5.3257e+07             81.8656
   17.35             56069.5        -1.60519e+06         5.37845e+07             82.6532
   17.37               56375        -1.61652e+06         5.42588e+07             83.4571
   17.39             56624.9        -1.62601e+06          5.4675e+07             84.2703
   17.41             56817.2        -1.63359e+06         5.50288e+07             85.0851
   17.43             56951.1        -1.63919e+06         5.53168e+07             85.8936
   17.45             57026.7        -1.64279e+06         5.55366e+07             86.6878
   17.47             57044.9        -1.64438e+06         5.56865e+07             87.4597
   17.49             57007.5          -1.644e+06         5.57658e+07             88.2017
   17.51               56917        -1.64169e+06         5.57746e+07             88.9068
   17.53             56776.3        -1.63751e+06         5.57134e+07             89.5686
   17.55             56588.8        -1.63156e+06         5.55839e+07              90.182
   17.57             56358.2        -1.62392e+06         5.53881e+07             90.7427
   17.59             56088.3         -1.6147e+06         5.51288e+07             91.2484
   17.61             55783.1        -1.60401e+06         5.48093e+07             91.6979
   17.63             55446.6        -1.59199e+06         5.44333e+07             92.0917
   17.65             55082.9        -1.57875e+06         5.40054e+07             92.4319
   17.67             54696.1        -1.56443e+06         5.35301e+07             92.7221
   17.69             54290.1        -1.54917e+06         5.30125e+07             92.9673
   17.71             53868.9         -1.5331e+06         5.24581e+07             93.1736
   17.73             53436.5        -1.51636e+06         5.18724e+07              93.348
   17.75             52996.7        -1.49909e+06          5.1261e+07             93.4982
   17.77             52553.5        -1.48143e+06         5.06298e+07             93.6326
   17.79             52110.7        -1.46351e+06         4.99844e+07             93.7595
   17.81               51672        -1.44548e+06         4.93305e+07             93.8877
   17.83             51241.3        -1.42748e+06         4.86737e+07             94.0253
   17.85             50822.3        -1.40962e+06         4.80193e+07             94.1806
   17.87             50418.7        -1.39203e+06         4.73724e+07             94.3613
   17.89             50033.8        -1.37484e+06         4.67377e+07             94.5746
   17.91               49671        -1.35816e+06         4.61196e+07              94.827
   17.93             49333.5        -1.34209e+06         4.55221e+07             95.1245
   17.95             49023.9        -1.32671e+06         4.49486e+07             95.4722
   17.97             48744.6        -1.31211e+06         4.44019e+07             95.8747
   17.99             48497.9        -1.29835e+06         4.38844e+07             96.3356
   18.01             48285.2        -1.28547e+06         4.33977e+07             96.8575
   18.03             48107.6         -1.2735e+06         4.29427e+07             97.4422
   18.05             47965.7        -1.26245e+06         4.25196e+07             98.0906
   18.07             47859.5         -1.2523e+06         4.21279e+07             98.8024
   18.09             47788.4        -1.24304e+06         4.17663e+07             99.5763
   18.11             47751.2        -1.23461e+06         4.14328e+07              100.41
   18.13             47746.2        -1.22693e+06         4.11248e+07             101.299
   18.15               47771        -1.21993e+06         4.08388e+07             102.239
   18.17             47822.7        -1.21349e+06         4.05708e+07             103.224
   18.19             47897.8        -1.20749e+06         4.03162e+07             104.247
   18.21             47992.7         -1.2018e+06           4.007e+07             105.299
   18.23               48103        -1.19627e+06         3.98268e+07             106.372
   18.25             48224.5        -1.19075e+06         3.95812e+07             107.455
   18.27             48352.4        -1.18508e+06         3.93275e+07             108.538
   18.29             48482.5        -1.17912e+06         3.90604e+07              109.61
   18.31             48610.3        -1.17272e+06         3.87748e+07             110.662
   18.33             48731.8        -1.16574e+06         3.84662e+07             111.681
   18.35             48843.7        -1.15808e+06         3.81306e+07             112.658
   18.37               48943        -1.14965e+06         3.77651e+07             113.584
   18.39             49027.5        -1.14038e+06         3.73675e+07             114.449
   18.41             49096.1        -1.13024e+06         3.69367e+07             115.246
   18.43               49148        -1.11921e+06         3.64726e+07             115.968
   18.45             49183.7        -1.10731e+06         3.59762e+07             116.609
   18.47             49204.2        -1.09458e+06         3.54492e+07             117.165
   18.49             49211.1        -1.08111e+06         3.48942e+07             117.631
   18.51             49206.7        -1.06697e+06         3.43145e+07             118.004
   18.53             49193.5        -1.05228e+06          3.3714e+07             118.282
   18.55             49174.2        -1.03714e+06         3.30967e+07             118.462
   18.57             49151.5        -1.02169e+06         3.24671e+07             118.543
   18.59             49128.2        -1.00603e+06         3.18294e+07             118.525
   18.61             49106.5             -990309          3.1188e+07             118.406
   18.63             49088.5             -974628         3.05469e+07             118.186
   18.65             49075.7             -959102         2.99098e+07             117.867
   18.67             49069.2             -943828         2.92803e+07             117.448
   18.69             49069.8             -928898         2.86614e+07             116.932
   18.71             49077.6             -914387         2.80555e+07              116.32
   18.73             49092.8             -900362         2.74651e+07             115.615
   18.75             49114.9             -886879         2.68918e+07             114.821
   18.77             49143.8             -873982         2.63372e+07             113.943
   18.79             49179.2             -861710         2.58022e+07             112.986
   18.81             49220.9             -850089         2.52876e+07             111.956
   18.83             49269.2             -839141          2.4794e+07             110.859
   18.85             49324.6             -828883         2.43217e+07             109.705
   18.87               49388             -819326         2.38707e+07               108.5
   18.89             49460.9             -810476          2.3441e+07             107.253
   18.91             49545.1             -802338         2.30323e+07             105.974
   18.93             49642.8             -794912         2.26444e+07             104.671
   18.95             49756.5             -788199         2.22769e+07             103.354
   18.97             49888.6             -782193         2.19294e+07             102.031
   18.99               50042             -776889         2.16015e+07              100.71
   19.01               50219             -772276         2.12927e+07             99.4009
   19.03             50421.9             -768341         2.10023e+07             98.1096
   19.05             50652.4             -765067         2.07299e+07             96.8431
   19.07             50911.6             -762430         2.04749e+07              95.607
   19.09             51199.9             -760405         2.02366e+07              94.406
   19.11             51516.8             -758954         2.00142e+07             93.2439
   19.13             51860.9             -758038         1.98071e+07             92.1233
   19.15             52229.6             -757604         1.96142e+07             91.0458
   19.17             52619.2             -757596         1.94347e+07             90.0121
   19.19             53024.8             -757945         1.92674e+07             89.0219
   19.21             53440.3             -758573         1.91112e+07             88.0738
   19.23             53858.3             -759395         1.89648e+07             87.1658
   19.25             54270.6             -760316         1.88267e+07             86.2948
   19.27             54667.6             -761231         1.86955e+07             85.4575
   19.29             55039.2             -762033         1.85696e+07             84.6494
   19.31             55374.6             -762607         1.84473e+07             83.8661
   19.33             55662.6             -762838         1.83269e+07             83.1025
   19.35             55892.2             -762611         1.82068e+07             82.3532
   19.37             56052.6             -761817         1.80853e+07             81.6128
   19.39             56133.9             -760352         1.79608e+07             80.8756
   19.41             56127.2             -758126         1.78317e+07             80.1362
   19.43             56025.4             -755061         1.76968e+07              79.389
   19.45               55823             -751098         1.75547e+07              78.629
   19.47             55516.5             -746197         1.74046e+07              77.851
   19.49             55104.9             -740338         1.72457e+07             77.0507
   19.51             54589.1             -733523         1.70774e+07              76.224
   19.53             53972.3             -725773         1.68993e+07             75.3674
   19.55             53259.7             -717130         1.67115e+07             74.4781
   19.57             52458.3             -707651          1.6514e+07             73.5541
   19.59             51576.4             -697408         1.63072e+07              72.594
   19.61             50623.5             -686484         1.60917e+07             71.5973
   19.63             49609.7             -674969         1.58681e+07             70.5643
   19.65             48545.5             -662959         1.56372e+07             69.4962
   19.67             47441.3             -650550            1.54e+07             68.3949
   19.69             46307.4             -637836         1.51575e+07             67.2631
   19.71             45153.4             -624909         1.49107e+07              66.104
   19.73             43988.4             -611856         1.46608e+07             64.9215
   19.75             42820.6             -598756         1.44087e+07             63.7196
   19.77             41657.3             -585682         1.41555e+07              62.503
   19.79             40504.9             -572699         1.39022e+07             61.2762
   19.81             39368.8             -559861         1.36499e+07             60.0439
   19.83             38253.7             -547219         1.33992e+07             58.8106
   19.85             37163.3             -534812         1.31512e+07             57.5807
   19.87             36100.6             -522674         1.29064e+07             56.3584
   19.89             35067.9             -510832         1.26655e+07             55.1473
   19.91             34066.9             -499306         1.24291e+07             53.9509
   19.93             33098.8             -488112         1.21975e+07             52.7723
   19.95             32164.2             -477260         1.19712e+07             51.6139
   19.97             31263.4             -466755         1.17504e+07             50.4781
   19.99             30396.5             -456601         1.15355e+07             49.3666
   20.01               29563             -446797         1.13264e+07             48.2809
