## w(eV)         sigma(Sm^-1)     kappa(W(mK)^-1)        L12/e(Am^-1)      L22/e^2(Wm^-1)
    0.01         2.52595e+06        -3.77758e+07         7.56971e+08             2027.11
    0.03         2.53219e+06        -3.78791e+07          7.5924e+08             2033.13
    0.05         2.54459e+06         -3.8085e+07         7.63759e+08             2045.13
    0.07         2.56304e+06        -3.83915e+07         7.70495e+08             2063.01
    0.09         2.58736e+06        -3.87959e+07         7.79394e+08             2086.64
    0.11         2.61729e+06        -3.92946e+07         7.90388e+08             2115.85
    0.13         2.65255e+06        -3.98833e+07         8.03391e+08              2150.4
    0.15         2.69278e+06        -4.05567e+07         8.18302e+08             2190.03
    0.17         2.73758e+06        -4.13088e+07         8.35004e+08             2234.46
    0.19          2.7865e+06        -4.21329e+07         8.53369e+08             2283.33
    0.21         2.83905e+06        -4.30216e+07         8.73251e+08             2336.27
    0.23          2.8947e+06        -4.39672e+07         8.94496e+08             2392.89
    0.25         2.95289e+06        -4.49611e+07         9.16937e+08             2452.76
    0.27         3.01304e+06        -4.59944e+07         9.40399e+08             2515.41
    0.29         3.07453e+06        -4.70578e+07         9.64697e+08             2580.36
    0.31         3.13674e+06        -4.81419e+07         9.89639e+08             2647.12
    0.33         3.19903e+06        -4.92369e+07         1.01503e+09             2715.18
    0.35         3.26077e+06        -5.03329e+07         1.04067e+09                2784
    0.37         3.32132e+06          -5.142e+07         1.06635e+09             2853.05
    0.39         3.38004e+06        -5.24882e+07         1.09187e+09              2921.8
    0.41         3.43633e+06         -5.3528e+07         1.11703e+09              2989.7
    0.43         3.48959e+06        -5.45297e+07         1.14163e+09             3056.21
    0.45         3.53924e+06        -5.54842e+07         1.16546e+09             3120.82
    0.47         3.58475e+06        -5.63825e+07         1.18834e+09                3183
    0.49          3.6256e+06        -5.72164e+07         1.21009e+09             3242.25
    0.51         3.66135e+06        -5.79778e+07         1.23052e+09             3298.09
    0.53         3.69155e+06        -5.86595e+07         1.24947e+09             3350.05
    0.55         3.71583e+06        -5.92549e+07         1.26679e+09             3397.72
    0.57         3.73388e+06        -5.97579e+07         1.28232e+09             3440.67
    0.59         3.74541e+06        -6.01634e+07         1.29595e+09             3478.55
    0.61         3.75021e+06        -6.04668e+07         1.30755e+09             3511.01
    0.63         3.74811e+06        -6.06645e+07         1.31702e+09             3537.76
    0.65           3.739e+06        -6.07536e+07         1.32427e+09             3558.53
    0.67         3.72284e+06        -6.07322e+07         1.32924e+09             3573.13
    0.69         3.69962e+06         -6.0599e+07         1.33187e+09             3581.36
    0.71         3.66941e+06        -6.03536e+07         1.33212e+09              3583.1
    0.73         3.63231e+06        -5.99966e+07         1.32997e+09             3578.28
    0.75         3.58849e+06        -5.95292e+07         1.32542e+09             3566.84
    0.77         3.53816e+06        -5.89534e+07         1.31848e+09             3548.81
    0.79         3.48157e+06         -5.8272e+07         1.30917e+09             3524.22
    0.81         3.41903e+06        -5.74884e+07         1.29754e+09             3493.17
    0.83         3.35085e+06        -5.66067e+07         1.28365e+09              3455.8
    0.85         3.27741e+06        -5.56316e+07         1.26756e+09             3412.28
    0.87         3.19911e+06        -5.45683e+07         1.24936e+09             3362.84
    0.89         3.11637e+06        -5.34226e+07         1.22915e+09              3307.7
    0.91         3.02962e+06        -5.22004e+07         1.20702e+09             3247.17
    0.93         2.93933e+06        -5.09082e+07         1.18311e+09             3181.55
    0.95         2.84596e+06        -4.95528e+07         1.15752e+09             3111.18
    0.97         2.74998e+06        -4.81411e+07          1.1304e+09             3036.42
    0.99         2.65187e+06        -4.66802e+07         1.10189e+09             2957.66
    1.01          2.5521e+06        -4.51772e+07         1.07211e+09             2875.29
    1.03         2.45112e+06        -4.36393e+07         1.04122e+09             2789.72
    1.05         2.34941e+06        -4.20736e+07         1.00937e+09             2701.37
    1.07          2.2474e+06        -4.04872e+07         9.76698e+08             2610.67
    1.09          2.1455e+06         -3.8887e+07         9.43361e+08             2518.04
    1.11         2.04414e+06        -3.72796e+07         9.09502e+08              2423.9
    1.13         1.94367e+06        -3.56715e+07         8.75266e+08             2328.68
    1.15         1.84447e+06        -3.40688e+07         8.40793e+08             2232.79
    1.17         1.74686e+06        -3.24773e+07         8.06219e+08             2136.62
    1.19         1.65115e+06        -3.09026e+07         7.71673e+08             2040.55
    1.21          1.5576e+06        -2.93497e+07         7.37282e+08             1944.97
    1.23         1.46647e+06        -2.78233e+07         7.03164e+08             1850.21
    1.25         1.37797e+06        -2.63277e+07         6.69428e+08              1756.6
    1.27         1.29228e+06        -2.48668e+07         6.36177e+08             1664.46
    1.29         1.20957e+06         -2.3444e+07         6.03508e+08             1574.06
    1.31         1.12996e+06        -2.20624e+07         5.71507e+08             1485.66
    1.33         1.05355e+06        -2.07245e+07         5.40251e+08              1399.5
    1.35              980430        -1.94326e+07         5.09812e+08             1315.79
    1.37              910636        -1.81885e+07         4.80249e+08             1234.69
    1.39              844201        -1.69934e+07         4.51617e+08             1156.37
    1.41              781129        -1.58486e+07         4.23958e+08             1080.95
    1.43              721406        -1.47546e+07         3.97311e+08             1008.54
    1.45              664998        -1.37118e+07         3.71703e+08             939.224
    1.47              611854        -1.27202e+07         3.47155e+08             873.047
    1.49              561911        -1.17797e+07         3.23681e+08             810.044
    1.51              515089        -1.08896e+07          3.0129e+08              750.23
    1.53              471298        -1.00492e+07          2.7998e+08             693.595
    1.55              430441        -9.25769e+06         2.59749e+08             640.115
    1.57              392408        -8.51379e+06         2.40585e+08             589.746
    1.59              357087        -7.81624e+06         2.22474e+08             542.431
    1.61              324359        -7.16359e+06         2.05396e+08             498.098
    1.63              294102        -6.55429e+06         1.89329e+08             456.667
    1.65              266192         -5.9867e+06         1.74244e+08             418.042
    1.67              240502        -5.45907e+06         1.60113e+08             382.123
    1.69              216908        -4.96964e+06         1.46904e+08             348.802
    1.71              195286        -4.51659e+06         1.34582e+08             317.964
    1.73              175512        -4.09809e+06         1.23112e+08             289.492
    1.75              157467        -3.71228e+06         1.12457e+08             263.263
    1.77              141033        -3.35735e+06         1.02579e+08             239.156
    1.79              126098        -3.03146e+06         9.34394e+07             217.049
    1.81              112553        -2.73285e+06         8.50003e+07             196.817
    1.83              100293        -2.45978e+06          7.7223e+07             178.342
    1.85               89218        -2.21053e+06         7.00695e+07             161.503
    1.87             79233.6        -1.98349e+06         6.35021e+07             146.186
    1.89             70250.1        -1.77707e+06         5.74843e+07              132.28
    1.91             62182.8        -1.58975e+06         5.19801e+07             119.675
    1.93             54952.1        -1.42009e+06         4.69548e+07              108.27
    1.95             48483.8        -1.26671e+06          4.2375e+07             97.9655
    1.97             42708.4        -1.12831e+06         3.82085e+07             88.6691
    1.99             37561.4        -1.00366e+06         3.44244e+07             80.2927
    2.01             32982.9             -891591         3.09935e+07             72.7539
    2.03             28917.8             -791026          2.7888e+07             65.9756
    2.05               25315             -700943         2.50814e+07              59.886
    2.07             22127.9             -620395         2.25491e+07             54.4185
    2.09             19313.6             -548502         2.02677e+07             49.5117
    2.11               16833             -484448         1.82155e+07             45.1091
    2.13             14650.5             -427479         1.63722e+07             41.1589
    2.15             12733.8             -376903          1.4719e+07             37.6139
    2.17             11053.6             -332082         1.32385e+07             34.4311
    2.19             9583.34             -292435         1.19145e+07             31.5715
    2.21             8299.23             -257430         1.07323e+07             28.9998
    2.23             7179.84             -226582         9.67839e+06             26.6843
    2.25             6205.94             -199455         8.74044e+06             24.5965
    2.27             5360.38             -175651         7.90726e+06             22.7107
    2.29             4627.84             -154815         7.16875e+06             21.0037
    2.31             3994.71             -136625         6.51582e+06              19.455
    2.33             3448.95             -120797         5.94035e+06             18.0457
    2.35             2979.91             -107076         5.43514e+06             16.7592
    2.37              2578.2              -95236         4.99384e+06             15.5799
    2.39             2235.62            -85080.3         4.61092e+06             14.4938
    2.41             1944.97            -76435.8         4.28162e+06             13.4881
    2.43             1700.04            -69152.6         4.00188e+06             12.5507
    2.45             1495.42            -63102.6         3.76837e+06             11.6709
    2.47              1326.5            -58177.5         3.57836e+06             10.8392
    2.49             1189.35            -54287.2         3.42978e+06             10.0479
    2.51             1080.65            -51358.7          3.3211e+06             9.29183
    2.53             997.657            -49335.2         3.25141e+06             8.56873
    2.55             938.134            -48174.5         3.22031e+06              7.8799
    2.57             900.302            -47848.4         3.22791e+06             7.22992
    2.59             882.801              -48342         3.27486e+06             6.62562
    2.61             884.653            -49652.6         3.36228e+06             6.07439
    2.63              905.23            -51789.4         3.49177e+06              5.5823
    2.65             944.223            -54772.8         3.66541e+06              5.1527
    2.67             1001.62            -58633.8         3.88573e+06             4.78568
    2.69             1077.68            -63413.8         4.15571e+06             4.47841
    2.71             1172.88            -69162.2          4.4787e+06             4.22603
    2.73             1288.05            -75943.8         4.85877e+06             4.02268
    2.75             1424.11            -83826.1         5.30008e+06             3.86228
    2.77             1582.24            -92887.7         5.80733e+06             3.73914
    2.79              1763.8             -103215         6.38562e+06             3.64822
    2.81             1970.34             -114904         7.04043e+06             3.58525
    2.83             2203.57             -128055         7.77761e+06             3.54665
    2.85             2462.83             -142749         8.60299e+06             3.47348
    2.87             2755.69             -159167         9.52382e+06             3.48813
    2.89             3081.07             -177392         1.05464e+07             3.51696
    2.91             3441.21             -197549         1.16778e+07             3.55893
    2.93             3838.12             -219759         1.29248e+07             3.61148
    2.95              4274.9             -244178         1.42956e+07             3.67735
    2.97             4753.55             -270928         1.57971e+07             3.75365
    2.99             5276.52             -300144         1.74368e+07              3.8396
    3.01             5846.25             -331960          1.9222e+07             3.93444
    3.03             6465.14             -366509         2.11599e+07             4.03739
    3.05             7135.52             -403920         2.32576e+07             4.14767
    3.07             7859.64             -444317         2.55218e+07             4.26447
    3.09             8639.42             -487808         2.79586e+07             4.38594
    3.11             9477.24             -534515         3.05742e+07             4.51359
    3.13             10374.6             -584526         3.33734e+07             4.64524
    3.15             11333.1             -637924         3.63608e+07             4.78004
    3.17             12353.8             -694776         3.95398e+07             4.91714
    3.19             13437.9             -755133         4.29132e+07             5.05569
    3.21             14585.7             -819025         4.64824e+07             5.19483
    3.23             15797.7             -886462         5.02478e+07              5.3337
    3.25             17073.4             -957431         5.42085e+07             5.47146
    3.27             18412.3        -1.03189e+06         5.83622e+07             5.60729
    3.29             19813.2        -1.10978e+06          6.2705e+07             5.74039
    3.31             21274.3          -1.191e+06         6.72314e+07              5.8694
    3.33             22793.7        -1.27543e+06         7.19348e+07             5.99487
    3.35             24368.4        -1.36291e+06         7.68061e+07             6.11535
    3.37             25995.1        -1.45326e+06          8.1835e+07             6.23021
    3.39             27669.9        -1.54626e+06         8.70093e+07             6.33885
    3.41             29388.2        -1.64166e+06         9.23148e+07             6.44071
    3.43               31145        -1.73917e+06         9.77358e+07             6.53533
    3.45             32934.5        -1.83847e+06         1.03255e+08             6.62226
    3.47             34750.6        -1.93923e+06         1.08852e+08             6.70116
    3.49             36586.4        -2.04107e+06         1.14508e+08             6.77174
    3.51             38434.7        -2.14358e+06         1.20199e+08             6.83379
    3.53             40287.9        -2.24634e+06         1.25902e+08             6.88718
    3.55             42137.6        -2.34889e+06         1.31592e+08             6.93182
    3.57             43975.5        -2.45077e+06         1.37242e+08             6.96775
    3.59             45792.7        -2.55148e+06         1.42826e+08             6.99504
    3.61             47580.2        -2.65053e+06         1.48317e+08             7.01386
    3.63             49328.7        -2.74741e+06         1.53685e+08             7.02444
    3.65             51029.1         -2.8416e+06         1.58903e+08             7.02709
    3.67             52671.9        -2.93259e+06         1.63941e+08             7.02219
    3.69             54247.9        -3.01986e+06         1.68773e+08             7.01016
    3.71             55748.1        -3.10293e+06          1.7337e+08             6.99152
    3.73             57163.7        -3.18129e+06         1.77706e+08             6.96681
    3.75             58486.2        -3.25449e+06         1.81754e+08             6.93665
    3.77             59707.6        -3.32207e+06         1.85491e+08             6.90169
    3.79             60820.2        -3.38363e+06         1.88893e+08             6.86261
    3.81             61817.1        -3.43878e+06         1.91939e+08             6.82015
    3.83               62692        -3.48716e+06          1.9461e+08             6.77503
    3.85             63439.3        -3.52847e+06         1.96889e+08             6.72805
    3.87             64054.1        -3.56244e+06         1.98762e+08             6.67995
    3.89             64532.5        -3.58886e+06         2.00216e+08             6.63153
    3.91             64871.3        -3.60755e+06         2.01242e+08             6.58355
    3.93             65068.3        -3.61839e+06         2.01835e+08             6.53678
    3.95             65122.2        -3.62131e+06         2.01989e+08             6.49194
    3.97             65032.8         -3.6163e+06         2.01704e+08             6.44975
    3.99             64800.6         -3.6034e+06         2.00983e+08             6.41086
    4.01             64427.3        -3.58268e+06         1.99831e+08             6.37589
    4.03             63915.2         -3.5543e+06         1.98254e+08             6.34541
    4.05             63267.9        -3.51844e+06         1.96265e+08             6.31994
    4.07             62489.5        -3.47533e+06         1.93876e+08              6.2999
    4.09             61585.2        -3.42526e+06         1.91102e+08             6.28568
    4.11             60560.8        -3.36856e+06         1.87963e+08             6.27755
    4.13             59422.8        -3.30558e+06         1.84477e+08             6.27573
    4.15             58178.4        -3.23672e+06         1.80668e+08             6.28036
    4.17             56835.3        -3.16241e+06         1.76558e+08             6.29145
    4.19             55401.7        -3.08311e+06         1.72173e+08             6.30897
    4.21             53886.2        -2.99928e+06         1.67538e+08             6.33278
    4.23             52297.7        -2.91143e+06         1.62682e+08             6.36267
    4.25             50645.3        -2.82005e+06         1.57633e+08             6.39828
    4.27             48938.3        -2.72565e+06         1.52417e+08             6.43924
    4.29             47185.9        -2.62876e+06         1.47064e+08             6.48505
    4.31             45397.3        -2.52987e+06         1.41602e+08             6.53517
    4.33             43581.9         -2.4295e+06         1.36058e+08             6.58896
    4.35             41748.4        -2.32814e+06         1.30461e+08             6.64573
    4.37             39905.7        -2.22628e+06         1.24836e+08             6.70473
    4.39             38062.1        -2.12436e+06         1.19208e+08             6.76515
    4.41             36225.5        -2.02284e+06         1.13603e+08             6.82615
    4.43             34403.6        -1.92213e+06         1.08042e+08             6.88686
    4.45             32603.4        -1.82262e+06         1.02548e+08             6.94638
    4.47             30831.6        -1.72468e+06         9.71395e+07             7.00381
    4.49             29094.1        -1.62863e+06         9.18357e+07             7.05824
    4.51             27396.4        -1.53477e+06         8.66527e+07             7.10877
    4.53             25743.4        -1.44338e+06         8.16052e+07             7.15452
    4.55             24139.5        -1.35469e+06         7.67061e+07             7.19465
    4.57             22589.4        -1.26893e+06         7.19669e+07             7.24914
    4.59             21094.3        -1.18622e+06         6.73963e+07             7.28153
    4.61             19657.7        -1.10674e+06         6.30024e+07             7.30763
    4.63             18281.7        -1.03059e+06         5.87909e+07             7.32721
    4.65             16967.8             -957844         5.47664e+07             7.34024
    4.67             15717.7             -888592         5.09325e+07             7.35295
    4.69             14530.7             -822812         4.72893e+07             7.35534
    4.71             13407.4             -760531         4.38374e+07              7.3529
    4.73             12347.6             -701728         4.05759e+07             7.34679
    4.75             11350.8             -646367         3.75025e+07             7.33858
    4.77             10415.8             -594391          3.4614e+07             7.33032
    4.79             9541.63             -545728         3.19065e+07             7.32467
    4.81             8726.72             -500293         2.93751e+07             7.32496
    4.83             7969.47             -457988         2.70145e+07             7.33533
    4.85             7268.12             -418708         2.48186e+07             7.36087
    4.87             6620.78             -382339         2.27812e+07             7.40781
    4.89             6025.54             -348763         2.08956e+07             7.48363
    4.91             5480.45             -317857         1.91549e+07             7.59727
    4.93             4983.59             -289499         1.75521e+07             7.75932
    4.95             4533.11             -263564         1.60803e+07             7.98196
    4.97             4127.27             -239932         1.47323e+07             8.27908
    4.99             3764.49             -218485         1.35014e+07             8.66583
    5.01             3443.37             -199111          1.2381e+07               9.158
    5.03             3162.78             -181703         1.13646e+07             9.77073
    5.05             2921.81             -166164          1.0446e+07             10.5164
    5.07             2719.94             -152403         9.61949e+06             11.4019
    5.09                2557             -140342         8.87973e+06             12.4248
    5.11             2433.23             -129913         8.22176e+06             13.5701
    5.13             2349.39             -121063          7.6411e+06             14.8075
    5.15             2306.73             -113751          7.1338e+06             16.0919
    5.17             2307.14             -107952         6.69641e+06             17.3677
    5.19             2353.14             -103658         6.32607e+06             18.5773
    5.21             2448.02             -100878          6.0205e+06             19.6715
    5.23             2595.86            -99642.2         5.77806e+06              20.619
    5.25             2801.63             -100001         5.59775e+06             21.4112
    5.27             3071.32             -102027         5.47924e+06             22.0618
    5.29             3411.98             -105819         5.42293e+06             22.6012
    5.31             3831.84             -111500         5.42996e+06             23.0703
    5.33             4340.43             -119223         5.50226e+06             23.5132
    5.35             4948.71             -129170         5.64257e+06             23.9728
    5.37             5669.15             -141558         5.85451e+06              24.488
    5.39             6515.89             -156638         6.14259e+06             25.0929
    5.41             7504.86             -174698          6.5123e+06             25.8167
    5.43             8653.91             -196067         6.97012e+06             26.6849
    5.45             9982.96             -221117         7.52359e+06             27.7198
    5.47             11514.1             -250266         8.18137e+06             28.9416
    5.49             13271.9             -283978         8.95328e+06             30.3697
    5.51             15283.1             -322772         9.85037e+06             32.0227
    5.53             17577.3             -367216          1.0885e+07             33.9196
    5.55             20186.8             -417937         1.20707e+07               36.08
    5.57             23146.5             -475620         1.34226e+07             38.5243
    5.59             26494.4             -541007         1.49572e+07             41.2744
    5.61             30271.4             -614907         1.66924e+07             44.3533
    5.63             34521.4             -698186         1.86475e+07             47.7856
    5.65             39291.4             -791778         2.08434e+07             51.5976
    5.67             44631.2             -896678         2.33027e+07             55.8173
    5.69             50593.8        -1.01395e+06         2.60493e+07             60.4743
    5.71             57234.9         -1.1447e+06         2.91085e+07                65.6
    5.73             64613.1        -1.29012e+06         3.25073e+07             71.2272
    5.75             72789.3        -1.45145e+06          3.6274e+07             77.3907
    5.77             81826.8        -1.62997e+06          4.0438e+07             84.1261
    5.79             91790.9        -1.82701e+06         4.50301e+07             91.4709
    5.81              102748        -2.04395e+06          5.0082e+07             99.4633
    5.83              114768        -2.28219e+06         5.56265e+07             108.143
    5.85              127917        -2.54316e+06         6.16969e+07             117.549
    5.87              142266         -2.8283e+06          6.8327e+07             127.723
    5.89              157883        -3.13904e+06         7.55507e+07             138.705
    5.91              174835        -3.47683e+06          8.3402e+07             150.535
    5.93              193187        -3.84304e+06         9.19142e+07             163.252
    5.95              213002        -4.23903e+06          1.0112e+08             176.895
    5.97              234340        -4.66611e+06         1.11051e+08             191.501
    5.99              257255        -5.12546e+06         1.21738e+08             207.103
    6.01              281795        -5.61823e+06         1.33207e+08             223.734
    6.03              308004        -6.14538e+06         1.45485e+08             241.423
    6.05              335917        -6.70778e+06         1.58594e+08             260.194
    6.07              365560        -7.30613e+06         1.72553e+08             280.068
    6.09              396951        -7.94093e+06         1.87377e+08             301.061
    6.11              430097        -8.61249e+06         2.03077e+08             323.181
    6.13              464993        -9.32091e+06         2.19659e+08             346.433
    6.15              501621         -1.0066e+07         2.37122e+08             370.814
    6.17              539953        -1.08474e+07         2.55462e+08             396.312
    6.19              579942        -1.16643e+07         2.74666e+08             422.909
    6.21              621532        -1.25158e+07         2.94716e+08              450.58
    6.23              664648        -1.34006e+07         3.15587e+08             479.288
    6.25              709200         -1.4317e+07         3.37244e+08             508.988
    6.27              755083        -1.52632e+07         3.59648e+08             539.626
    6.29              802175        -1.62367e+07          3.8275e+08             571.138
    6.31              850340        -1.72351e+07         4.06494e+08             603.451
    6.33              899424        -1.82553e+07         4.30816e+08             636.481
    6.35              949260        -1.92941e+07         4.55643e+08             670.134
    6.37              999664        -2.03479e+07         4.80896e+08              704.31
    6.39         1.05044e+06        -2.14128e+07         5.06487e+08             738.895
    6.41         1.10138e+06        -2.24847e+07         5.32325e+08              773.77
    6.43         1.15226e+06         -2.3559e+07         5.58305e+08             808.806
    6.45         1.20286e+06        -2.46313e+07         5.84323e+08             843.868
    6.47         1.25293e+06        -2.56965e+07         6.10267e+08             878.812
    6.49         1.30222e+06        -2.67497e+07         6.36019e+08             913.491
    6.51          1.3505e+06        -2.77857e+07         6.61459e+08             947.751
    6.53         1.39749e+06        -2.87993e+07         6.86465e+08             981.437
    6.55         1.44296e+06        -2.97851e+07         7.10909e+08             1014.39
    6.57         1.48665e+06        -3.07379e+07         7.34667e+08             1046.45
    6.59         1.52831e+06        -3.16524e+07         7.57613e+08             1077.46
    6.61          1.5677e+06        -3.25234e+07         7.79621e+08             1107.25
    6.63         1.60459e+06         -3.3346e+07          8.0057e+08             1135.68
    6.65         1.63875e+06        -3.41153e+07          8.2034e+08              1162.6
    6.67         1.66999e+06        -3.48267e+07         8.38819e+08             1187.86
    6.69         1.69809e+06        -3.54759e+07         8.55898e+08             1211.31
    6.71          1.7229e+06         -3.6059e+07         8.71477e+08             1232.85
    6.73         1.74425e+06        -3.65723e+07         8.85462e+08             1252.34
    6.75           1.762e+06        -3.70127e+07          8.9777e+08             1269.67
    6.77         1.77605e+06        -3.73774e+07         9.08326e+08             1284.77
    6.79          1.7863e+06        -3.76642e+07         9.17068e+08             1297.53
    6.81         1.79269e+06        -3.78712e+07         9.23943e+08              1307.9
    6.83         1.79518e+06        -3.79973e+07          9.2891e+08             1315.82
    6.85         1.79376e+06        -3.80416e+07         9.31943e+08             1321.26
    6.87         1.78842e+06        -3.80039e+07         9.33025e+08             1324.19
    6.89         1.77923e+06        -3.78847e+07         9.32155e+08              1324.6
    6.91         1.76622e+06        -3.76848e+07         9.29344e+08             1322.52
    6.93          1.7495e+06        -3.74057e+07         9.24615e+08             1317.96
    6.95         1.72918e+06        -3.70492e+07         9.18004e+08             1310.97
    6.97         1.70538e+06        -3.66178e+07         9.09559e+08             1301.61
    6.99         1.67827e+06        -3.61144e+07          8.9934e+08             1289.95
    7.01         1.64801e+06        -3.55423e+07          8.8742e+08             1276.07
    7.03          1.6148e+06        -3.49053e+07         8.73879e+08             1260.09
    7.05         1.57886e+06        -3.42075e+07         8.58808e+08              1242.1
    7.07         1.54039e+06        -3.34534e+07         8.42309e+08             1222.24
    7.09         1.49964e+06        -3.26476e+07         8.24488e+08             1200.64
    7.11         1.45684e+06        -3.17951e+07          8.0546e+08             1177.44
    7.13         1.41225e+06        -3.09011e+07         7.85346e+08             1152.79
    7.15         1.36613e+06         -2.9971e+07          7.6427e+08             1126.85
    7.17         1.31872e+06          -2.901e+07         7.42361e+08             1099.77
    7.19         1.27029e+06        -2.80236e+07         7.19749e+08             1071.71
    7.21          1.2211e+06        -2.70174e+07         6.96565e+08             1042.85
    7.23         1.17138e+06        -2.59966e+07         6.72942e+08             1013.34
    7.25          1.1214e+06        -2.49668e+07          6.4901e+08             983.343
    7.27         1.07139e+06        -2.39329e+07         6.24899e+08             953.022
    7.29         1.02158e+06        -2.29002e+07         6.00735e+08             922.528
    7.31              972186        -2.18735e+07         5.76642e+08             892.011
    7.33              923417        -2.08575e+07         5.52736e+08             861.611
    7.35              875468        -1.98565e+07         5.29131e+08             831.462
    7.37              828519        -1.88747e+07         5.05936e+08             801.687
    7.39              782736         -1.7916e+07         4.83251e+08             772.399
    7.41              738272         -1.6984e+07         4.61172e+08             743.701
    7.43              695264         -1.6082e+07         4.39786e+08             715.683
    7.45              653833        -1.52128e+07         4.19174e+08             688.421
    7.47              614085        -1.43793e+07         3.99412e+08             661.979
    7.49              576113        -1.35836e+07         3.80564e+08             636.404
    7.51              539995         -1.2828e+07          3.6269e+08              611.73
    7.53              505793        -1.21142e+07         3.45844e+08             587.974
    7.55              473559        -1.14435e+07         3.30069e+08             565.136
    7.57              443331        -1.08174e+07         3.15404e+08             543.204
    7.59              415133        -1.02366e+07         3.01883e+08             522.144
    7.61              388981        -9.70186e+06         2.89529e+08             501.913
    7.63              364879        -9.21373e+06         2.78364e+08             482.448
    7.65              342823        -8.77241e+06         2.68401e+08              463.68
    7.67              322799        -8.37797e+06         2.59649e+08             445.528
    7.69              304786        -8.03029e+06         2.52114e+08             427.908
    7.71              288756        -7.72908e+06         2.45793e+08             410.736
    7.73              274675         -7.4739e+06         2.40683e+08             393.936
    7.75              262503        -7.26416e+06         2.36775e+08             377.445
    7.77              252197        -7.09916e+06         2.34056e+08             361.222
    7.79              243708        -6.97808e+06          2.3251e+08              345.25
    7.81              236983        -6.89999e+06         2.32118e+08              329.54
    7.83              231968        -6.86386e+06         2.32858e+08             314.132
    7.85              228605        -6.86857e+06         2.34704e+08             299.089
    7.87              226833        -6.91291e+06         2.37627e+08             284.497
    7.89              226590        -6.99559e+06         2.41597e+08             270.446
    7.91              227812        -7.11524e+06         2.46579e+08             257.028
    7.93              230431         -7.2704e+06         2.52536e+08             244.327
    7.95              234381        -7.45955e+06         2.59429e+08             232.407
    7.97              239590        -7.68107e+06         2.67215e+08             221.312
    7.99              245987        -7.93326e+06         2.75848e+08             211.063
    8.01              253499        -8.21434e+06         2.85279e+08             201.654
    8.03              262050        -8.52245e+06         2.95458e+08             193.062
    8.05              271564        -8.85562e+06         3.06328e+08             185.246
    8.07              281961        -9.21181e+06         3.17831e+08             178.153
    8.09              293160         -9.5889e+06         3.29908e+08              171.72
    8.11              305079        -9.98465e+06         3.42493e+08             165.882
    8.13              317632        -1.03968e+07         3.55519e+08             160.571
    8.15              330732        -1.08228e+07         3.68915e+08              155.72
    8.17              344291        -1.12603e+07         3.82609e+08             151.266
    8.19              358218        -1.17068e+07         3.96524e+08             147.149
    8.21              372421        -1.21595e+07         4.10582e+08             143.317
    8.23              386807        -1.26158e+07         4.24703e+08              139.72
    8.25              401283         -1.3073e+07         4.38804e+08             136.314
    8.27              415752        -1.35282e+07         4.52801e+08             133.062
    8.29              430120        -1.39787e+07         4.66609e+08             129.931
    8.31              444292        -1.44216e+07         4.80144e+08             126.893
    8.33              458174        -1.48542e+07         4.93321e+08             123.924
    8.35              471673        -1.52737e+07         5.06054e+08             121.005
    8.37              484696        -1.56772e+07         5.18261e+08             118.119
    8.39              497157        -1.60622e+07          5.2986e+08             115.253
    8.41              508969        -1.64261e+07         5.40773e+08             112.399
    8.43              520049        -1.67664e+07         5.50924e+08             109.548
    8.45              530320        -1.70806e+07         5.60241e+08             106.695
    8.47              539709        -1.73666e+07         5.68657e+08             103.837
    8.49              548149        -1.76225e+07          5.7611e+08             100.973
    8.51              555577        -1.78461e+07         5.82544e+08             98.1031
    8.53              561940        -1.80361e+07         5.87908e+08             95.2282
    8.55              567190        -1.81908e+07         5.92158e+08             92.3511
    8.57              571286         -1.8309e+07          5.9526e+08             89.4751
    8.59              574195        -1.83899e+07         5.97183e+08             86.6046
    8.61              575895        -1.84327e+07         5.97908e+08             83.7446
    8.63              576368        -1.84368e+07         5.97422e+08             80.9007
    8.65              575607        -1.84023e+07          5.9572e+08             78.0793
    8.67              573614         -1.8329e+07         5.92806e+08              75.287
    8.69              570397        -1.82173e+07         5.88693e+08             72.5307
    8.71              565975        -1.80678e+07           5.834e+08             69.8182
    8.73              560374        -1.78815e+07         5.76957e+08             67.1571
    8.75              553627        -1.76592e+07         5.69399e+08             64.5555
    8.77              545776        -1.74025e+07         5.60769e+08             62.0217
    8.79              536868        -1.71128e+07         5.51118e+08             59.5645
    8.81              526958        -1.67919e+07         5.40502e+08             57.1926
    8.83              516107        -1.64416e+07         5.28984e+08              54.915
    8.85              504379        -1.60642e+07          5.1663e+08             52.7411
    8.87              491846        -1.56617e+07         5.03513e+08             50.6802
    8.89              478581        -1.52366e+07         4.89708e+08             48.7421
    8.91              464660        -1.47914e+07         4.75295e+08             46.9364
    8.93              450164        -1.43284e+07         4.60353e+08             45.2732
    8.95              435173        -1.38504e+07         4.44967e+08             43.7625
    8.97              419769        -1.33599e+07         4.29219e+08             42.4145
    8.99              404033        -1.28594e+07         4.13193e+08             41.2395
    9.01              388047        -1.23517e+07         3.96972e+08             40.2478
    9.03              371890        -1.18391e+07         3.80637e+08             39.4498
    9.05              355639        -1.13243e+07         3.64269e+08             38.8531
    9.07              339371        -1.08095e+07         3.47944e+08             38.4738
    9.09              323158        -1.02971e+07         3.31737e+08             38.3186
    9.11              307068        -9.78927e+06         3.15718e+08             38.3973
    9.13              291165        -9.28804e+06         2.99953e+08             38.7192
    9.15              275510        -8.79537e+06         2.84506e+08             39.2932
    9.17              260158        -8.31302e+06         2.69433e+08             40.1276
    9.19              245161         -7.8426e+06         2.54788e+08             41.2297
    9.21              230563        -7.38558e+06         2.40617e+08             42.6058
    9.23              216406        -6.94324e+06         2.26963e+08             44.2608
    9.25              202724        -6.51673e+06         2.13862e+08             46.1983
    9.27              189548          -6.107e+06         2.01347e+08             48.4196
    9.29              176903        -5.71486e+06         1.89444e+08             50.9239
    9.31              164808        -5.34096e+06         1.78173e+08             53.7075
    9.33              153280        -4.98578e+06         1.67551e+08             56.7637
    9.35              142329        -4.64965e+06         1.57588e+08             60.0817
    9.37              131960        -4.33278e+06         1.48292e+08             63.6463
    9.39              122177        -4.03522e+06         1.39663e+08             67.4373
    9.41              112976        -3.75691e+06         1.31699e+08             71.4287
    9.43              104354        -3.49767e+06         1.24394e+08             75.5875
    9.45             96300.3        -3.25721e+06         1.17737e+08             79.8738
    9.47             88804.5        -3.03514e+06         1.11714e+08             84.2393
    9.49             81852.2        -2.83098e+06         1.06309e+08             88.6269
    9.51             75426.8        -2.64418e+06         1.01502e+08             92.9708
    9.53             69509.9        -2.47412e+06         9.72709e+07             97.1956
    9.55             64081.6        -2.32012e+06         9.35905e+07             101.218
    9.57             59120.2        -2.18146e+06         9.04345e+07             104.945
    9.59             54603.2        -2.05735e+06         8.77746e+07              108.28
    9.61             50507.4          -1.947e+06         8.55812e+07             111.121
    9.63             46808.7        -1.84958e+06         8.38234e+07             113.368
    9.65             43482.9        -1.76426e+06         8.24694e+07             114.926
    9.67             40505.6        -1.69017e+06          8.1487e+07             115.709
    9.69             37852.5        -1.62647e+06         8.08431e+07             115.648
    9.71             35499.5        -1.57231e+06         8.05048e+07             114.698
    9.73             33422.9        -1.52684e+06         8.04389e+07             112.837
    9.75             31599.6        -1.48923e+06         8.06126e+07             110.078
    9.77               30007        -1.45867e+06         8.09934e+07             106.465
    9.79             28623.5        -1.43438e+06         8.15492e+07             102.072
    9.81             27428.2        -1.41559e+06         8.22489e+07             97.0045
    9.83               26401        -1.40156e+06          8.3062e+07             91.3863
    9.85               25523        -1.39158e+06         8.39591e+07             85.3574
    9.87               24776          -1.385e+06          8.4912e+07             79.0632
    9.89             24143.1        -1.38116e+06         8.58938e+07             72.6468
    9.91             23608.4        -1.37947e+06         8.68788e+07             66.2415
    9.93               23157        -1.37936e+06         8.78429e+07             59.9651
    9.95             22775.2        -1.38032e+06         8.87636e+07             53.9164
    9.97             22450.1        -1.38185e+06           8.962e+07              48.173
    9.99               22170        -1.38353e+06         9.03929e+07             42.7918
   10.01             21924.5        -1.38493e+06          9.1065e+07             37.8099
   10.03             21703.7         -1.3857e+06         9.16207e+07              33.247
   10.05             21499.1        -1.38551e+06         9.20464e+07              29.108
   10.07             21302.9        -1.38408e+06         9.23302e+07              25.386
   10.09             21108.5        -1.38116e+06         9.24622e+07             22.0651
   10.11             20909.7        -1.37656e+06         9.24346e+07             19.1232
   10.13             20701.7        -1.37008e+06         9.22411e+07             16.5337
   10.15             20480.2        -1.36161e+06         9.18774e+07             14.2677
   10.17             20241.6        -1.35104e+06         9.13412e+07             12.2954
   10.19             19983.1         -1.3383e+06         9.06315e+07             10.5873
   10.21             19702.7        -1.32337e+06         8.97495e+07             9.11472
   10.23             19398.8        -1.30621e+06         8.86974e+07             7.85051
   10.25             19070.5        -1.28688e+06         8.74795e+07             6.76955
   10.27             18717.4        -1.26539e+06         8.61011e+07             5.84868
   10.29             18339.5        -1.24183e+06         8.45689e+07             5.06692
   10.31             17937.4        -1.21629e+06         8.28908e+07             4.40545
   10.33             17511.9        -1.18887e+06         8.10756e+07             3.84747
   10.35             17064.3        -1.15969e+06         7.91331e+07             3.37815
   10.37               16596         -1.1289e+06          7.7074e+07             2.98446
   10.39             16108.8        -1.09665e+06         7.49095e+07             2.65502
   10.41             15604.7         -1.0631e+06         7.26512e+07             2.37993
   10.43             15085.7        -1.02841e+06         7.03114e+07             2.15065
   10.45             14554.2             -992755         6.79023e+07              1.9598
   10.47             14012.4             -956312         6.54363e+07             1.80109
   10.49             13462.8             -919256          6.2926e+07             1.66912
   10.51             12907.7             -881763         6.03834e+07             1.55929
   10.53             12349.5             -844004         5.78208e+07             1.46773
   10.55             11790.6             -806147         5.52498e+07             1.39113
   10.57             11233.2             -768355         5.26816e+07             1.32674
   10.59             10679.5             -730782         5.01269e+07             1.27223
   10.61             10131.6             -693574         4.75959e+07             1.22566
   10.63             9591.41             -656869         4.50981e+07             1.18539
   10.65             9060.81             -620795         4.26422e+07              1.1501
   10.67             8541.45             -585467         4.02363e+07             1.11865
   10.69             8034.83             -550990         3.78875e+07             1.09014
   10.71             7542.31             -517460         3.56024e+07             1.06381
   10.73             7065.06             -484957         3.33866e+07             1.03905
   10.75              6604.1             -453552         3.12449e+07             1.01535
   10.77             6160.28             -423304         2.91814e+07            0.992338
   10.79             5734.28             -394262         2.71994e+07             0.96968
   10.81             5326.64             -366461         2.53015e+07            0.947134
   10.83             4937.73             -339929         2.34893e+07             0.92451
   10.85             4567.77             -314680         2.17642e+07            0.901669
   10.87              4216.3             -290706          2.0126e+07            0.870316
   10.89             3884.54             -268042         1.85759e+07            0.848558
   10.91             3571.61             -246657         1.71125e+07            0.825999
   10.93             3277.27             -226534         1.57347e+07            0.802703
   10.95             3001.18             -207651          1.4441e+07            0.778738
   10.97              2742.9             -189977         1.32295e+07            0.754175
   10.99             2501.93             -173478         1.20977e+07            0.729091
   11.01             2277.69             -158118         1.10432e+07            0.703564
   11.03             2069.58             -143852         1.00631e+07            0.677676
   11.05             1876.91             -130637         9.15435e+06             0.65151
   11.07             1699.01             -118426         8.31388e+06             0.62515
   11.09             1535.14             -107170         7.53836e+06            0.598681
   11.11             1384.59            -96819.5         6.82447e+06             0.57219
   11.13              1246.6            -87324.6         6.16882e+06            0.545761
   11.15             1120.44            -78635.3         5.56806e+06            0.519478
   11.17             1005.37            -70701.9         5.01882e+06            0.493423
   11.19             900.669            -63475.7         4.51783e+06            0.467674
   11.21             805.638              -56909         4.06186e+06            0.442309
   11.23             719.587            -50955.4          3.6478e+06            0.417398
   11.25             641.856            -45570.4         3.27264e+06            0.393009
   11.27             571.811            -40711.2         2.93349e+06            0.369205
   11.29             508.848            -36336.8         2.62759e+06            0.346043
   11.31             452.392            -32408.5         2.35233e+06            0.323573
   11.33             401.903            -28889.7         2.10525e+06            0.301839
   11.35             356.871            -25745.9         1.88401e+06            0.280879
   11.37             316.818            -22945.1         1.68646e+06            0.260723
   11.39             281.301            -20457.1         1.51057e+06            0.241395
   11.41             249.909            -18254.1         1.35446e+06            0.222912
   11.43             222.261            -16310.6          1.2164e+06            0.205283
   11.45             198.007            -14602.8         1.09479e+06            0.188513
   11.47             176.826              -13109              988187            0.172599
   11.49             158.428            -11809.6              895247            0.157538
   11.51             142.546            -10686.7              814764            0.143319
   11.53             128.939            -9723.98              745644            0.129933
   11.55             117.393            -8906.86              686903            0.117369
   11.57             107.712            -8222.27              637657             0.10562
   11.59             99.7241             -7658.5              597119           0.0946788
   11.61             93.2746            -7205.19              564589           0.0845397
   11.63             88.2275            -6853.14              539448           0.0751989
   11.65              84.463            -6594.31              521153           0.0666504
   11.67             81.8763            -6421.63              509232           0.0588839
   11.69             80.3762            -6328.98              503272           0.0518813
   11.71             79.8838             -6311.1              502920           0.0456156
   11.73             80.3317            -6363.46              507874           0.0400496
   11.75             81.6623            -6482.24              517880           0.0351371
   11.77             83.8272            -6664.24              532725           0.0308253
   11.79             86.7861            -6906.79              552233           0.0270574
   11.81             90.5055            -7207.72              576264           0.0237758
   11.83             94.9586            -7565.29              604703           0.0209245
   11.85             100.124            -7978.12              637464           0.0184508
   11.87             105.984            -8445.16              674482           0.0163066
   11.89             112.527            -8965.62              715708           0.0144488
   11.91             119.742            -9538.95              761111           0.0128392
   11.93             127.623            -10164.8              810671           0.0114444
   11.95             136.166            -10842.8              864375           0.0102354
   11.97             145.365            -11572.9              922217          0.00918687
   11.99              155.22              -12355              984196          0.00827713
   12.01             165.728            -13188.9         1.05031e+06          0.00748727
   12.03             176.887            -14074.6         1.12054e+06          0.00680092
   12.05             188.694              -15012          1.1949e+06          0.00620403
   12.07             201.145            -16000.6         1.27335e+06          0.00568429
   12.09             214.236            -17040.2         1.35586e+06          0.00523106
   12.11             227.959            -18130.2          1.4424e+06           0.0048351
   12.13             242.305            -19269.9         1.53291e+06          0.00448842
   12.15             257.261            -20458.2          1.6273e+06          0.00418404
   12.17             272.811              -21694         1.72547e+06          0.00391592
   12.19             288.938            -22975.7         1.82732e+06          0.00367883
   12.21             305.617            -24301.5         1.93269e+06          0.00346815
   12.23             322.822            -25669.3         2.04142e+06           0.0032801
   12.25             340.522            -27076.6          2.1533e+06          0.00311118
   12.27              358.68            -28520.5          2.2681e+06          0.00295848
   12.29             377.256            -29997.8         2.38557e+06          0.00281945
   12.31             396.205            -31504.9         2.50541e+06          0.00269195
   12.33             415.475            -33037.6         2.62731e+06          0.00257411
   12.35             435.011            -34591.6         2.75092e+06          0.00246436
   12.37             454.736            -36160.9         2.87577e+06          0.00234021
   12.39             474.621            -37742.8          3.0016e+06          0.00224756
   12.41             494.574            -39330.3         3.12789e+06           0.0021586
   12.43             514.522            -40917.4         3.25416e+06          0.00207277
   12.45             534.386              -42498         3.37992e+06          0.00198962
   12.47             554.083            -44065.4         3.50464e+06          0.00190876
   12.49              573.53            -45612.9         3.62777e+06           0.0018299
   12.51             592.636            -47133.4         3.74877e+06          0.00175282
   12.53             611.312            -48619.7         3.86705e+06          0.00167723
   12.55             629.466            -50064.6         3.98204e+06          0.00160328
   12.57             647.006            -51460.7         4.09315e+06          0.00153074
   12.59             663.838            -52800.5         4.19979e+06          0.00145961
   12.61             679.872            -54076.7         4.30137e+06          0.00138987
   12.63             695.015            -55282.3         4.39733e+06          0.00132155
   12.65             709.182            -56410.1         4.48711e+06           0.0012547
   12.67             722.286            -57453.4         4.57017e+06           0.0011894
   12.69             734.248            -58405.8           4.646e+06          0.00112571
   12.71             744.991            -59261.3         4.71412e+06          0.00106371
   12.73             754.446            -60014.3         4.77408e+06           0.0010035
   12.75             762.548            -60659.7         4.82549e+06         0.000945144
   12.77             769.242            -61193.1         4.86798e+06         0.000888766
   12.79             774.479            -61610.5         4.90124e+06         0.000834403
   12.81             778.218            -61908.7         4.92502e+06         0.000782149
   12.83             780.428            -62085.2         4.93912e+06         0.000732072
   12.85             781.087            -62138.3          4.9434e+06         0.000684234
   12.87             780.181              -62067         4.93777e+06         0.000638686
   12.89             777.709            -61870.9         4.92222e+06         0.000595473
   12.91             773.676            -61550.7         4.89679e+06         0.000554628
   12.93               768.1            -61107.7         4.86159e+06         0.000516176
   12.95             761.008              -60544         4.81678e+06         0.000480133
   12.97             752.434            -59862.4          4.7626e+06         0.000446507
   12.99             742.426            -59066.6         4.69932e+06         0.000415297
   13.01             731.036            -58160.9          4.6273e+06         0.000386495
   13.03             718.327            -57150.2         4.54692e+06         0.000360086
   13.05             704.401            -56041.4         4.45868e+06         0.000816477
   13.07              689.28            -54838.4         4.36298e+06         0.000928039
   13.09             673.072            -53548.9         4.26039e+06           0.0010771
   13.11             655.867            -52179.8         4.15146e+06          0.00127242
   13.13             637.759            -50738.7          4.0368e+06          0.00152484
   13.15             618.845            -49233.3         3.91701e+06          0.00184771
   13.17             599.227            -47671.6         3.79273e+06          0.00225745
   13.19             579.007            -46061.7         3.66461e+06          0.00277415
   13.21             558.288            -44411.9         3.53329e+06          0.00342242
   13.23             537.177            -42730.3         3.39942e+06           0.0042322
   13.25             515.776            -41025.2         3.26367e+06          0.00523991
   13.27             494.189            -39304.7         3.12666e+06          0.00648965
   13.29             472.517            -37576.6         2.98901e+06           0.0080347
   13.31             450.859            -35848.7         2.85135e+06          0.00993915
   13.33              429.31            -34128.4         2.71423e+06           0.0122799
   13.35             407.962            -32422.8         2.57823e+06           0.0151487
   13.37             386.904            -30738.6         2.44387e+06           0.0186549
   13.39             366.221            -29082.2         2.31164e+06           0.0229276
   13.41             345.992            -27459.7           2.182e+06           0.0281187
   13.43             326.295            -25876.6         2.05538e+06           0.0344059
   13.45             307.453              -24343         1.93227e+06           0.0515309
   13.47               289.1            -22855.2         1.81284e+06           0.0632565
   13.49             271.502            -21421.5          1.6975e+06           0.0774427
   13.51             254.727            -20046.1         1.58652e+06           0.0945305
   13.53             238.874            -18733.7         1.48019e+06            0.116024
   13.55             223.948            -17486.2         1.37867e+06            0.140679
   13.57             210.045            -16307.6         1.28219e+06            0.169838
   13.59             197.233            -15201.1          1.1909e+06            0.204016
   13.61             185.587            -14169.8         1.10497e+06            0.243636
   13.63             175.186            -13216.8          1.0245e+06             0.28894
   13.65             166.119            -12345.1              949616            0.339874
   13.67             158.482              -11558              880428            0.395955
   13.69             152.386            -10859.1              817037            0.456132
   13.71             147.959            -10252.4              759548              0.5187
   13.73             145.346            -9742.27              708076            0.581301
   13.75             144.712            -9333.76              662746            0.641079
   13.77             146.253             -9032.7              623707            0.695008
   13.79              150.19             -8845.8              591132            0.740359
   13.81              156.78            -8780.85              565228            0.775199
   13.83             166.321            -8846.82              546243            0.798767
   13.85             179.153            -9054.11              534468            0.811627
   13.87             195.666            -9414.63              530252            0.815551
   13.89             216.308            -9942.09              534002            0.813205
   13.91             241.589            -10652.1              546193            0.807752
   13.93             272.088            -11562.5              567375            0.802504
   13.95             308.464            -12693.3              598181             0.80066
   13.97              351.46            -14067.4              639332             0.80518
   13.99             401.914            -15710.1              691644            0.818746
   14.01             460.768            -17650.1              756038            0.843799
   14.03             529.079            -19919.1              833541            0.882607
   14.05             608.026            -22552.5              925297            0.937345
   14.07             698.925            -25589.1         1.03257e+06             1.01018
   14.09             803.239            -29072.2         1.15675e+06             1.10334
   14.11             922.587            -33048.7         1.29936e+06             1.21916
   14.13             1058.76            -37570.5         1.46205e+06             1.36016
   14.15             1213.74            -42693.7         1.64662e+06             1.52907
   14.17             1389.69            -48479.7           1.855e+06             1.72885
   14.19             1588.99            -54994.5         2.08928e+06             1.96271
   14.21             1814.25            -62309.9         2.35165e+06             2.23415
   14.23             2068.31            -70502.6          2.6445e+06             2.54696
   14.25             2354.26            -79655.2         2.97031e+06             2.90519
   14.27             2675.44              -89856         3.33172e+06              3.3132
   14.29             3035.49             -101199          3.7315e+06             3.77562
   14.31             3438.29             -113783         4.17252e+06             4.29732
   14.33             3888.07             -127715          4.6578e+06             4.88343
   14.35             4389.31             -143106         5.19044e+06             5.53928
   14.37             4946.84             -160071         5.77364e+06             6.27037
   14.39             5565.78             -178735         6.41068e+06             7.08233
   14.41             6251.57             -199224         7.10488e+06             7.98088
   14.43             7009.97             -221671         7.85964e+06             8.97176
   14.45             7847.06             -246213         8.67836e+06             10.0607
   14.47             8769.21             -272991         9.56443e+06             11.2532
   14.49              9783.1             -302150         1.05212e+07             12.5547
   14.51             10895.7             -333839         1.15521e+07             13.9703
   14.53             12114.2             -368206         1.26603e+07             15.5048
   14.55             13446.1             -405405         1.38489e+07             17.1625
   14.57               14899             -445586         1.51211e+07             18.9472
   14.59             16480.8             -488901         1.64795e+07             20.8618
   14.61             18199.4             -535501         1.79269e+07             22.9088
   14.63             20062.9             -585534         1.94655e+07             25.0897
   14.65             22079.3             -639141         2.10977e+07             27.4051
   14.67             24256.7             -696463         2.28251e+07             29.8545
   14.69             26603.1             -757628         2.46492e+07             32.4363
   14.71               29126             -822761         2.65712e+07             35.1478
   14.73             31833.1             -891973         2.85917e+07              37.985
   14.75             34731.5             -965364         3.07109e+07             40.9426
   14.77             37827.8        -1.04302e+06         3.29287e+07             44.0141
   14.79             41128.3        -1.12502e+06         3.52441e+07             47.1915
   14.81             44638.3         -1.2114e+06         3.76561e+07             50.4655
   14.83             48362.7        -1.30222e+06         4.01626e+07             53.8255
   14.85             52305.3        -1.39747e+06         4.27612e+07             57.2595
   14.87             56469.1        -1.49715e+06         4.54489e+07             60.7544
   14.89             60855.7        -1.60122e+06          4.8222e+07             64.2957
   14.91             65465.8        -1.70963e+06         5.10762e+07             67.8681
   14.93             70298.7        -1.82228e+06         5.40064e+07             71.4549
   14.95             75352.1        -1.93906e+06          5.7007e+07              75.039
   14.97             80622.4         -2.0598e+06         6.00717e+07             78.6023
   14.99             86104.3        -2.18434e+06         6.31935e+07             82.1261
   15.01             91790.6        -2.31245e+06         6.63648e+07             85.5915
   15.03             97672.6        -2.44387e+06         6.95774e+07             88.9792
   15.05              103740        -2.57833e+06         7.28224e+07               92.27
   15.07              109979         -2.7155e+06         7.60902e+07             95.4447
   15.09              116376        -2.85502e+06         7.93709e+07             98.4846
   15.11              122915        -2.99651e+06         8.26539e+07             101.371
   15.13              129577        -3.13953e+06         8.59281e+07             104.088
   15.15              136342        -3.28363e+06         8.91821e+07             106.617
   15.17              143188        -3.42831e+06          9.2404e+07             108.943
   15.19              150090        -3.57307e+06         9.55816e+07             111.053
   15.21              157023        -3.71735e+06         9.87024e+07             112.933
   15.23              163961        -3.86058e+06         1.01754e+08             114.571
   15.25              170874        -4.00217e+06         1.04723e+08              115.96
   15.27              177733        -4.14152e+06         1.07597e+08             117.089
   15.29              184507        -4.27799e+06         1.10364e+08             117.954
   15.31              191164        -4.41096e+06          1.1301e+08              118.55
   15.33              197671        -4.53979e+06         1.15524e+08             118.874
   15.35              203997        -4.66385e+06         1.17892e+08             118.927
   15.37              210109        -4.78249e+06         1.20104e+08              118.71
   15.39              215973        -4.89509e+06         1.22149e+08             118.226
   15.41              221557        -5.00106e+06         1.24015e+08              117.48
   15.43              226831         -5.0998e+06         1.25692e+08             116.479
   15.45              231764        -5.19075e+06         1.27172e+08             115.232
   15.47              236326        -5.27338e+06         1.28446e+08             113.748
   15.49              240490         -5.3472e+06         1.29507e+08             112.039
   15.51              244231        -5.41176e+06         1.30347e+08             110.118
   15.53              247525        -5.46664e+06         1.30963e+08             107.998
   15.55              250351         -5.5115e+06         1.31349e+08             105.694
   15.57              252691        -5.54603e+06         1.31502e+08             103.222
   15.59              254529        -5.56998e+06          1.3142e+08             100.596
   15.61              255852        -5.58318e+06         1.31104e+08             97.8342
   15.63              256651        -5.58549e+06         1.30552e+08              94.953
   15.65              256919        -5.57686e+06         1.29768e+08              91.969
   15.67              256654         -5.5573e+06         1.28753e+08             88.8993
   15.69              255856        -5.52687e+06         1.27513e+08             85.7605
   15.71              254528        -5.48573e+06         1.26053e+08              82.569
   15.73              252679        -5.43406e+06          1.2438e+08             79.3406
   15.75              250317        -5.37213e+06         1.22501e+08             76.0908
   15.77              247457        -5.30027e+06         1.20426e+08             72.8343
   15.79              244116        -5.21887e+06         1.18164e+08             69.5852
   15.81              240312        -5.12836e+06         1.15727e+08             66.3567
   15.83              236069        -5.02923e+06         1.13126e+08             63.1612
   15.85              231411        -4.92201e+06         1.10374e+08             60.0101
   15.87              226364        -4.80728e+06         1.07483e+08             56.9141
   15.89              220958        -4.68565e+06         1.04469e+08             53.8826
   15.91              215223        -4.55776e+06         1.01343e+08             50.9244
   15.93              209192        -4.42428e+06         9.81225e+07             48.0472
   15.95              202897        -4.28589e+06         9.48205e+07             45.2577
   15.97              196372         -4.1433e+06         9.14523e+07             42.5618
   15.99              189652         -3.9972e+06         8.80326e+07             39.9646
   16.01              182771        -3.84829e+06         8.45763e+07             37.4702
   16.03              175764        -3.69729e+06         8.10978e+07              35.082
   16.05              168665        -3.54488e+06         7.76113e+07             32.8029
   16.07              161506        -3.39173e+06         7.41305e+07             30.6348
   16.09              154322        -3.23851e+06         7.06688e+07             28.5793
   16.11              147142        -3.08583e+06         6.72389e+07             26.6373
   16.13              139997        -2.93431e+06         6.38529e+07             24.8094
   16.15              132916        -2.78452e+06         6.05222e+07             23.0956
   16.17              125924        -2.63698e+06         5.72574e+07             21.4959
   16.19              119048         -2.4922e+06         5.40685e+07             20.0097
   16.21              112309        -2.35064e+06         5.09645e+07             18.6364
   16.23              105730        -2.21271e+06         4.79536e+07             17.3754
   16.25             99327.4        -2.07879e+06         4.50433e+07             16.2258
   16.27             93119.4        -1.94921e+06         4.22401e+07             15.1867
   16.29             87120.2        -1.82426e+06         3.95498e+07             14.2573
   16.31             81342.1        -1.70419e+06         3.69773e+07             13.4368
   16.33             75795.6        -1.58922e+06         3.45268e+07             12.7247
   16.35               70489         -1.4795e+06         3.22016e+07             12.1201
   16.37             65428.5        -1.37517e+06         3.00044e+07             11.6227
   16.39             60618.8        -1.27633e+06         2.79372e+07             11.2318
   16.41             56062.5        -1.18303e+06         2.60013e+07             10.9471
   16.43             51760.9         -1.0953e+06         2.41975e+07              10.768
   16.45             47713.4        -1.01314e+06          2.2526e+07             10.6939
   16.47             43918.4             -936524         2.09865e+07             10.7237
   16.49             40372.6             -865396         1.95784e+07              10.856
   16.51               37072             -799682         1.83004e+07             11.0885
   16.53             34011.4             -739290         1.71513e+07              11.418
   16.55             31184.7             -684109         1.61291e+07             11.8397
   16.57             28585.2             -634016         1.52321e+07              12.347
   16.59             26205.4             -588874         1.44578e+07             12.9309
   16.61             24037.5             -548537         1.38041e+07             13.5795
   16.63             22073.3             -512853         1.32682e+07             14.2775
   16.65             20304.1             -481661         1.28476e+07             15.0054
   16.67             18721.3             -454798         1.25395e+07             15.7397
   16.69               17316             -432097          1.2341e+07             16.4527
   16.71             16079.2             -413390         1.22492e+07             17.1131
   16.73             15002.3             -398506         1.22611e+07             17.6871
   16.75             14076.2             -387277         1.23735e+07             18.1401
   16.77             13292.6             -379533         1.25834e+07             18.4396
   16.79             12642.8             -375106         1.28873e+07              18.558
   16.81             12118.5             -373830         1.32821e+07             18.4753
   16.83             11711.7             -375539         1.37642e+07             18.1823
   16.85             11414.6             -380068         1.43301e+07             17.6819
   16.87             11219.5             -387254         1.49759e+07             16.9889
   16.89               11119             -396934          1.5698e+07             16.1292
   16.91             11106.1             -408946         1.64921e+07             15.1365
   16.93             11173.7             -423128          1.7354e+07              14.049
   16.95             11315.2             -439318         1.82793e+07             12.9059
   16.97             11524.1             -457353         1.92633e+07             11.7443
   16.99             11794.2             -477069          2.0301e+07             10.5964
   17.01             12119.2             -498300         2.13874e+07             9.48876
   17.03             12493.2             -520881         2.25168e+07             8.44153
   17.05             12910.5             -544642         2.36838e+07              7.4687
   17.07             13365.3             -569413         2.48824e+07              6.5789
   17.09             13852.2             -595022         2.61064e+07             5.77631
   17.11             14365.7             -621295         2.73495e+07             5.06166
   17.13             14900.7             -648056         2.86051e+07             4.43318
   17.15             15451.8             -675128         2.98663e+07             3.88744
   17.17             16014.1             -702335         3.11265e+07             3.42003
   17.19             16582.7             -729497         3.23784e+07             3.02608
   17.21             17152.7             -756438          3.3615e+07             2.70071
   17.23             17719.5             -782981         3.48291e+07             2.43931
   17.25             18278.6             -808953         3.60137e+07             2.23774
   17.27             18825.6             -834183         3.71617e+07             2.09251
   17.29             19356.5             -858503         3.82661e+07             2.00085
   17.31             19867.1             -881752         3.93201e+07             1.96079
   17.33             20353.8             -903774         4.03173e+07              1.9712
   17.35               20813             -924422         4.12512e+07              2.0318
   17.37             21241.5             -943556         4.21161e+07             2.14317
   17.39             21636.4             -961045         4.29063e+07             2.30677
   17.41             21994.8             -976771         4.36167e+07             2.52493
   17.43             22314.6             -990625         4.42427e+07             2.80086
   17.45             22593.6        -1.00251e+06         4.47803e+07             3.13864
   17.47             22830.3        -1.01235e+06         4.52259e+07             3.54322
   17.49             23023.3        -1.02008e+06         4.55766e+07             4.02044
   17.51             23171.7        -1.02563e+06         4.58301e+07             4.57696
   17.53             23275.2        -1.02898e+06         4.59849e+07             5.22032
   17.55             23333.5         -1.0301e+06           4.604e+07             5.95885
   17.57             23346.9        -1.02898e+06         4.59951e+07             6.80166
   17.59             23316.4        -1.02564e+06         4.58506e+07              7.7586
   17.61             23242.8        -1.02009e+06         4.56077e+07             8.84012
   17.63             23127.8        -1.01238e+06         4.52681e+07             10.0572
   17.65             22973.4        -1.00257e+06         4.48342e+07             11.4213
   17.67             22781.7             -990707          4.4309e+07             12.9439
   17.69             22555.5             -976890         4.36962e+07             14.6365
   17.71             22297.7             -961207         4.29997e+07             16.5102
   17.73             22011.6             -943764         4.22243e+07             18.5756
   17.75             21700.8             -924675          4.1375e+07             20.8418
   17.77             21369.1             -904065         4.04573e+07             23.3163
   17.79             21020.5             -882067         3.94769e+07             26.0044
   17.81             20659.3             -858817         3.84399e+07             28.9082
   17.83             20289.9             -834460         3.73526e+07             32.0261
   17.85             19916.7             -809142         3.62214e+07             35.3518
   17.87             19544.3             -783012         3.50527e+07             38.8734
   17.89             19177.3             -756221         3.38531e+07             42.5727
   17.91               18820             -728912         3.26291e+07             46.4238
   17.93             18477.4             -701242         3.13872e+07             50.3952
   17.95             18153.6             -673351         3.01336e+07             54.4446
   17.97             17852.9             -645378         2.88743e+07             58.5229
   17.99             17579.5             -617457         2.76151e+07             62.5729
   18.01             17337.2             -589719         2.63617e+07              66.531
   18.03             17129.8             -562284         2.51194e+07             70.3284
   18.05             16960.5             -535266         2.38928e+07             73.8934
   18.07             16832.5             -508769         2.26867e+07             77.1541
   18.09             16748.5             -482890         2.15052e+07             80.0419
   18.11             16710.9             -457716         2.03519e+07             82.4944
   18.13             16721.5             -433324         1.92302e+07              84.459
   18.15             16782.1             -409781          1.8143e+07             85.8955
   18.17             16893.6             -387145         1.70928e+07             86.7787
   18.19             17056.9             -365465         1.60817e+07             87.0995
   18.21               17272             -344778         1.51113e+07             86.8652
   18.23             17538.9             -325114         1.41829e+07             86.0986
   18.25             17856.7             -306493         1.32974e+07             84.8365
   18.27             18224.4             -288927         1.24554e+07             83.1272
   18.29             18640.2             -272419         1.16572e+07             81.0273
   18.31             19102.1             -256966         1.09026e+07             78.5989
   18.33             19607.7             -242556         1.01913e+07             75.9066
   18.35             20153.8             -229173         9.52279e+06             73.0144
   18.37             20737.3             -216792         8.89613e+06             69.9838
   18.39             21354.3             -205387         8.31034e+06             66.8717
   18.41             22000.7             -194923         7.76424e+06             63.7295
   18.43             22672.2             -185365         7.25649e+06              60.602
   18.45               23364             -176671         6.78565e+06             57.5275
   18.47             24071.2             -168800         6.35019e+06             54.5375
   18.49             24788.5             -161706         5.94849e+06             51.6572
   18.51             25510.8             -155343         5.57889e+06             48.9059
   18.53             26232.4             -149662         5.23973e+06             46.2975
   18.55               26948             -144616         4.92931e+06             43.8416
   18.57             27651.8             -140157         4.64594e+06             41.5437
   18.59             28338.3             -136236         4.38796e+06             39.4058
   18.61             29002.1             -132806         4.15374e+06             37.4276
   18.63             29637.8             -129819         3.94171e+06             35.6063
   18.65             30240.2             -127232         3.75031e+06             33.9377
   18.67             30804.2             -125001         3.57808e+06              32.416
   18.69             31325.2             -123082         3.42361e+06             31.0348
   18.71             31798.8             -121437         3.28554e+06             29.7869
   18.73             32220.7             -120027          3.1626e+06             28.6648
   18.75             32587.4             -118816         3.05358e+06             27.6607
   18.77             32895.5             -117771         2.95734e+06              26.767
   18.79             33142.2             -116861         2.87282e+06             25.9759
   18.81             33324.9             -116056           2.799e+06             25.2799
   18.83               33442             -115331         2.73494e+06             24.6716
   18.85             33491.8             -114660         2.67977e+06             24.1441
   18.87             33473.5             -114022         2.63265e+06             23.6905
   18.89             33386.6             -113398         2.59282e+06             23.3043
   18.91             33231.3             -112769         2.55956e+06             22.9793
   18.93             33008.2             -112121         2.53218e+06             22.7096
   18.95             32718.3             -111439         2.51006e+06             22.4897
   18.97             32363.2             -110713          2.4926e+06             22.3139
   18.99             31944.9             -109933         2.47923e+06             22.1774
   19.01             31465.7             -109091         2.46943e+06              22.075
   19.03             30928.7             -108181          2.4627e+06             22.0021
   19.05             30336.8             -107197         2.45857e+06             21.9542
   19.07             29693.5             -106137         2.45658e+06             21.9271
   19.09             29002.7             -104997         2.45631e+06             21.9164
   19.11             28268.4             -103778         2.45737e+06             21.9184
   19.13             27494.7             -102478         2.45935e+06             21.9291
   19.15               26686             -101099         2.46192e+06              21.945
   19.17             25846.7            -99642.7         2.46471e+06             21.9626
   19.19             24981.4            -98110.6          2.4674e+06             21.9786
   19.21             24094.6              -96506         2.46968e+06             21.9898
   19.23             23190.8            -94832.5         2.47128e+06             21.9934
   19.25             22274.5            -93093.9         2.47191e+06             21.9866
   19.27             21350.1            -91294.5         2.47134e+06             21.9667
   19.29             20421.8            -89438.9         2.46932e+06             21.9314
   19.31             19493.6            -87531.8         2.46566e+06             21.8786
   19.33             18569.5            -85578.2         2.46015e+06             21.8063
   19.35             17653.1            -83583.1         2.45264e+06             21.7127
   19.37             16747.8            -81551.5         2.44297e+06             21.5962
   19.39             15856.9            -79488.7         2.43102e+06             21.4558
   19.41             14983.2            -77399.5         2.41669e+06             21.2901
   19.43             14129.4            -75289.1         2.39989e+06             21.0985
   19.45             13297.9            -73162.3         2.38056e+06             20.8802
   19.47             12490.6              -71024         2.35866e+06             20.6351
   19.49             11709.5            -68878.6         2.33418e+06             20.3628
   19.51             10955.9            -66730.8          2.3071e+06             20.0634
   19.53             10231.2            -64584.8         2.27747e+06             19.7374
   19.55             9536.24            -62444.7          2.2453e+06             19.3852
   19.57             8871.77            -60314.5         2.21066e+06             19.0074
   19.59             8238.26            -58197.9         2.17363e+06              18.605
   19.61             7635.93            -56098.4         2.13429e+06             18.1792
   19.63             7064.81            -54019.4         2.09275e+06              17.731
   19.65             6524.71              -51964         2.04912e+06              17.262
   19.67              6015.3            -49935.1         2.00354e+06             16.7737
   19.69             5536.04            -47935.5         1.95614e+06             16.2677
   19.71              5086.3            -45967.6         1.90708e+06             15.7459
   19.73             4665.28            -44033.9          1.8565e+06             15.2101
   19.75             4272.11            -42136.5         1.80459e+06             14.6622
   19.77              3905.8            -40277.3         1.75149e+06             14.1044
   19.79              3565.3            -38457.2         1.69734e+06             13.5384
   19.81             3249.53            -36679.9         1.64242e+06             12.9669
   19.83             2957.32            -34945.6         1.58683e+06             12.3916
   19.85              2687.5            -33255.7         1.53075e+06             11.8147
   19.87             2438.88            -31611.3         1.47436e+06             11.2384
   19.89             2210.26            -30013.3         1.41783e+06             10.6646
   19.91             2000.45            -28462.6         1.36132e+06             10.0953
   19.93             1808.28            -26959.8           1.305e+06             9.53264
   19.95             1632.58            -25505.5         1.24901e+06             8.97837
   19.97             1472.25              -24100         1.19351e+06             8.43432
   19.99              1326.2            -22743.7         1.13864e+06             7.90218
   20.01             1193.37            -21436.6         1.08453e+06             7.38354
