## w(eV)         sigma(Sm^-1)     kappa(W(mK)^-1)        L12/e(Am^-1)      L22/e^2(Wm^-1)
    0.01         2.73612e+06        -4.12366e+07         7.95083e+08              1832.5
    0.03           2.735e+06        -4.12186e+07         7.94715e+08             1831.66
    0.05         2.73275e+06        -4.11826e+07         7.93982e+08             1829.99
    0.07         2.72936e+06        -4.11284e+07         7.92878e+08             1827.46
    0.09         2.72481e+06        -4.10557e+07         7.91404e+08             1824.11
    0.11         2.71909e+06        -4.09646e+07         7.89559e+08             1819.92
    0.13         2.71215e+06        -4.08546e+07         7.87343e+08              1814.9
    0.15         2.70398e+06        -4.07254e+07         7.84755e+08             1809.06
    0.17         2.69453e+06        -4.05768e+07         7.81793e+08             1802.41
    0.19         2.68376e+06        -4.04085e+07         7.78457e+08             1794.96
    0.21         2.67164e+06        -4.02199e+07         7.74746e+08             1786.73
    0.23         2.65812e+06        -4.00108e+07          7.7066e+08             1777.71
    0.25         2.64316e+06        -3.97808e+07           7.662e+08             1767.93
    0.27         2.62672e+06        -3.95297e+07         7.61368e+08              1757.4
    0.29         2.60875e+06         -3.9257e+07         7.56164e+08             1746.15
    0.31         2.58921e+06        -3.89625e+07         7.50592e+08             1734.21
    0.33         2.56808e+06         -3.8646e+07         7.44658e+08             1721.58
    0.35         2.54532e+06        -3.83074e+07         7.38364e+08             1708.32
    0.37         2.52091e+06        -3.79466e+07          7.3172e+08             1694.43
    0.39         2.49482e+06        -3.75637e+07         7.24732e+08             1679.97
    0.41         2.46704e+06        -3.71587e+07          7.1741e+08             1664.95
    0.43         2.43758e+06        -3.67318e+07         7.09765e+08             1649.43
    0.45         2.40642e+06        -3.62834e+07         7.01811e+08             1633.44
    0.47         2.37359e+06        -3.58139e+07          6.9356e+08             1617.02
    0.49         2.33911e+06        -3.53238e+07          6.8503e+08             1600.21
    0.51           2.303e+06        -3.48138e+07         6.76236e+08             1583.06
    0.53         2.26532e+06        -3.42847e+07         6.67199e+08             1565.61
    0.55          2.2261e+06        -3.37374e+07         6.57939e+08              1547.9
    0.57         2.18541e+06        -3.31728e+07         6.48476e+08             1529.99
    0.59         2.14333e+06        -3.25922e+07         6.38835e+08              1511.9
    0.61         2.09993e+06        -3.19968e+07         6.29038e+08             1493.69
    0.63         2.05531e+06        -3.13879e+07         6.19112e+08             1475.39
    0.65         2.00957e+06         -3.0767e+07         6.09081e+08             1457.05
    0.67          1.9628e+06        -3.01356e+07         5.98973e+08             1438.68
    0.69         1.91514e+06        -2.94953e+07         5.88813e+08             1420.33
    0.71          1.8667e+06        -2.88479e+07          5.7863e+08             1402.03
    0.73         1.81761e+06        -2.81949e+07         5.68452e+08             1383.79
    0.75           1.768e+06        -2.75383e+07         5.58304e+08             1365.63
    0.77         1.71802e+06        -2.68797e+07         5.48214e+08             1347.58
    0.79          1.6678e+06        -2.62212e+07         5.38209e+08             1329.63
    0.81         1.61749e+06        -2.55644e+07         5.28315e+08              1311.8
    0.83         1.56723e+06        -2.49112e+07         5.18556e+08             1294.07
    0.85         1.51717e+06        -2.42635e+07         5.08958e+08             1276.46
    0.87         1.46746e+06         -2.3623e+07         4.99543e+08             1258.95
    0.89         1.41823e+06        -2.29914e+07         4.90332e+08             1241.52
    0.91         1.36963e+06        -2.23704e+07         4.81347e+08             1224.16
    0.93         1.32179e+06        -2.17616e+07         4.72606e+08             1206.85
    0.95         1.27484e+06        -2.11666e+07         4.64126e+08             1189.57
    0.97         1.22891e+06        -2.05867e+07         4.55923e+08              1172.3
    0.99         1.18411e+06        -2.00234e+07         4.48012e+08             1155.01
    1.01         1.14057e+06        -1.94777e+07         4.40403e+08              1137.7
    1.03         1.09837e+06         -1.8951e+07         4.33107e+08             1120.34
    1.05         1.05763e+06        -1.84441e+07         4.26133e+08             1102.94
    1.07         1.01842e+06         -1.7958e+07         4.19487e+08             1085.48
    1.09              980816        -1.74933e+07         4.13174e+08             1067.98
    1.11              944897        -1.70508e+07         4.07197e+08             1050.47
    1.13              910717        -1.66309e+07         4.01556e+08             1032.97
    1.15              878324        -1.62339e+07         3.96252e+08             1015.54
    1.17              847758        -1.58601e+07         3.91282e+08             998.252
    1.19              819047        -1.55096e+07         3.86641e+08             981.185
    1.21              792211        -1.51823e+07         3.82325e+08             964.449
    1.23              767260        -1.48781e+07         3.78325e+08             948.168
    1.25              744194        -1.45966e+07         3.74635e+08             932.481
    1.27              723004        -1.43376e+07         3.71244e+08             917.548
    1.29              703673        -1.41004e+07         3.68141e+08             903.535
    1.31              686175        -1.38844e+07         3.65313e+08             890.622
    1.33              670476        -1.36888e+07         3.62748e+08              878.99
    1.35              656536        -1.35129e+07          3.6043e+08             868.821
    1.37              644306        -1.33557e+07         3.58346e+08             860.287
    1.39              633732        -1.32162e+07         3.56478e+08             853.553
    1.41              624753        -1.30933e+07          3.5481e+08             848.763
    1.43              617302        -1.29859e+07         3.53325e+08              846.04
    1.45              611309        -1.28927e+07         3.52004e+08             845.483
    1.47              606699        -1.28124e+07         3.50829e+08             847.163
    1.49              603392        -1.27438e+07         3.49781e+08             851.121
    1.51              601306        -1.26855e+07         3.48841e+08             857.368
    1.53              600355        -1.26361e+07         3.47989e+08             865.887
    1.55              600452        -1.25943e+07         3.47207e+08             876.637
    1.57              601507        -1.25586e+07         3.46474e+08             889.546
    1.59              603431        -1.25277e+07         3.45772e+08             904.525
    1.61              606131        -1.25001e+07         3.45081e+08             921.468
    1.63              609516        -1.24746e+07         3.44384e+08             940.248
    1.65              613495        -1.24498e+07          3.4366e+08             960.731
    1.67              617977        -1.24244e+07         3.42894e+08              982.77
    1.69              622872        -1.23972e+07         3.42067e+08             1006.21
    1.71              628092         -1.2367e+07         3.41163e+08              1030.9
    1.73              633550        -1.23327e+07         3.40168e+08             1056.66
    1.75              639162        -1.22932e+07         3.39066e+08             1083.34
    1.77              644847        -1.22476e+07         3.37844e+08             1110.76
    1.79              650524         -1.2195e+07          3.3649e+08             1138.76
    1.81              656118        -1.21346e+07         3.34993e+08             1167.17
    1.83              661556        -1.20657e+07         3.33343e+08             1195.82
    1.85              666769        -1.19878e+07         3.31533e+08             1224.54
    1.87              671692        -1.19004e+07         3.29554e+08             1253.16
    1.89              676263         -1.1803e+07         3.27403e+08             1281.52
    1.91              680425        -1.16955e+07         3.25076e+08             1309.46
    1.93              684124        -1.15776e+07          3.2257e+08             1336.82
    1.95              687313        -1.14493e+07         3.19886e+08             1363.45
    1.97              689947        -1.13107e+07         3.17024e+08             1389.19
    1.99              691986        -1.11619e+07         3.13988e+08             1413.92
    2.01              693396        -1.10032e+07         3.10781e+08              1437.5
    2.03              694145        -1.08349e+07         3.07411e+08              1459.8
    2.05              694209        -1.06575e+07         3.03884e+08             1480.71
    2.07              693566        -1.04715e+07          3.0021e+08             1500.14
    2.09              692199        -1.02775e+07         2.96399e+08             1517.99
    2.11              690096        -1.00762e+07         2.92462e+08              1534.2
    2.13              687250        -9.86836e+06         2.88413e+08             1548.69
    2.15              683658        -9.65478e+06         2.84265e+08             1561.43
    2.17              679321        -9.43629e+06         2.80034e+08             1572.39
    2.19              674242        -9.21376e+06         2.75734e+08             1581.55
    2.21              668433         -8.9881e+06         2.71381e+08             1588.92
    2.23              661904        -8.76024e+06         2.66993e+08             1594.51
    2.25              654675        -8.53111e+06         2.62586e+08             1598.36
    2.27              646763        -8.30164e+06         2.58178e+08             1600.52
    2.29              638193        -8.07274e+06         2.53785e+08             1601.04
    2.31              628992        -7.84533e+06         2.49424e+08             1599.99
    2.33              619187        -7.62026e+06         2.45113e+08             1597.46
    2.35              608812        -7.39839e+06         2.40867e+08             1593.55
    2.37              597901         -7.1805e+06         2.36702e+08             1588.35
    2.39              586491        -6.96736e+06         2.32633e+08             1581.96
    2.41              574618        -6.75965e+06         2.28674e+08             1574.49
    2.43              562325        -6.55801e+06         2.24838e+08             1566.06
    2.45              549652        -6.36303e+06         2.21137e+08             1556.76
    2.47              536642        -6.17521e+06         2.17583e+08             1546.71
    2.49              523339          -5.995e+06         2.14184e+08             1536.01
    2.51              509785        -5.82278e+06          2.1095e+08             1524.74
    2.53              496027        -5.65885e+06         2.07888e+08                1513
    2.55              482108        -5.50346e+06         2.05004e+08             1500.85
    2.57              468073        -5.35678e+06         2.02302e+08             1488.38
    2.59              453966        -5.21893e+06         1.99786e+08             1475.61
    2.61              439830        -5.08995e+06         1.97459e+08              1462.6
    2.63              425707        -4.96982e+06         1.95321e+08             1449.37
    2.65              411641         -4.8585e+06         1.93373e+08             1435.93
    2.67              397670        -4.75587e+06         1.91612e+08             1422.27
    2.69              383833        -4.66177e+06         1.90038e+08             1408.38
    2.71              370169          -4.576e+06         1.88647e+08             1394.23
    2.73              356714        -4.49835e+06         1.87435e+08             1379.77
    2.75              343500        -4.42855e+06         1.86398e+08             1364.94
    2.77              330562        -4.36633e+06         1.85533e+08             1349.68
    2.79              317929        -4.31141e+06         1.84832e+08             1333.92
    2.81              305630         -4.2635e+06         1.84291e+08             1317.57
    2.83              293692        -4.22228e+06         1.83905e+08             1300.54
    2.85              282141        -4.18749e+06         1.83668e+08             1282.75
    2.87              270999        -4.15884e+06         1.83575e+08             1264.11
    2.89              260288        -4.13606e+06          1.8362e+08             1244.53
    2.91              250028        -4.11891e+06           1.838e+08             1223.93
    2.93              240238        -4.10719e+06          1.8411e+08             1202.25
    2.95              230934        -4.10072e+06         1.84547e+08             1179.43
    2.97              222133        -4.09934e+06         1.85108e+08             1155.44
    2.99              213849        -4.10296e+06         1.85791e+08             1130.25
    3.01              206096         -4.1115e+06         1.86595e+08             1103.88
    3.03              198887        -4.12496e+06          1.8752e+08             1076.37
    3.05              192233        -4.14336e+06         1.88567e+08             1047.81
    3.07              186147        -4.16678e+06         1.89737e+08              1018.3
    3.09              180640        -4.19533e+06         1.91033e+08             988.015
    3.11              175724         -4.2292e+06         1.92459e+08              957.15
    3.13              171409        -4.26861e+06         1.94019e+08             925.952
    3.15              167706        -4.31382e+06          1.9572e+08             894.708
    3.17              164628        -4.36513e+06         1.97567e+08             863.741
    3.19              162184        -4.42291e+06         1.99567e+08             833.402
    3.21              160388        -4.48755e+06         2.01729e+08             804.058
    3.23              159251        -4.55945e+06          2.0406e+08             776.082
    3.25              158784         -4.6391e+06         2.06571e+08             749.835
    3.27              159002        -4.72694e+06          2.0927e+08             725.653
    3.29              159915         -4.8235e+06         2.12166e+08             703.829
    3.31              161537        -4.92928e+06          2.1527e+08             684.604
    3.33              163880        -5.04478e+06         2.18592e+08             668.155
    3.35              166956        -5.17055e+06          2.2214e+08             654.586
    3.37              170777        -5.30707e+06         2.25924e+08             643.934
    3.39              175353        -5.45484e+06         2.29953e+08             636.163
    3.41              180696        -5.61434e+06         2.34235e+08             631.177
    3.43              186813        -5.78601e+06         2.38776e+08             628.827
    3.45              193712        -5.97023e+06         2.43583e+08             628.921
    3.47              201397        -6.16737e+06         2.48661e+08             631.237
    3.49              209873        -6.37771e+06         2.54014e+08             635.535
    3.51              219139        -6.60149e+06         2.59644e+08             641.566
    3.53              229194        -6.83885e+06         2.65552e+08             649.079
    3.55              240031        -7.08988e+06         2.71735e+08             657.834
    3.57              251640        -7.35456e+06         2.78191e+08             667.601
    3.59              264010        -7.63278e+06         2.84915e+08             678.166
    3.61              277121        -7.92432e+06         2.91899e+08             689.334
    3.63              290952        -8.22887e+06         2.99134e+08             700.927
    3.65              305475          -8.546e+06         3.06608e+08             712.788
    3.67              320659        -8.87515e+06         3.14305e+08             724.777
    3.69              336465        -9.21566e+06         3.22209e+08              736.77
    3.71              352851        -9.56673e+06         3.30301e+08             748.659
    3.73              369769        -9.92745e+06         3.38559e+08             760.352
    3.75              387165        -1.02968e+07         3.46958e+08             771.768
    3.77              404980        -1.06736e+07         3.55471e+08             782.834
    3.79              423148        -1.10565e+07         3.64069e+08             793.492
    3.81              441601        -1.14443e+07         3.72721e+08             803.689
    3.83              460263        -1.18354e+07         3.81393e+08             813.378
    3.85              479057        -1.22282e+07         3.90049e+08             822.521
    3.87              497897         -1.2621e+07         3.98653e+08             831.084
    3.89              516699         -1.3012e+07         4.07166e+08             839.037
    3.91              535371        -1.33995e+07         4.15547e+08             846.354
    3.93              553820        -1.37815e+07         4.23755e+08             853.012
    3.95              571953        -1.41562e+07         4.31748e+08             858.993
    3.97              589675        -1.45215e+07         4.39485e+08             864.278
    3.99              606888        -1.48755e+07         4.46922e+08             868.853
    4.01              623497        -1.52162e+07         4.54017e+08             872.705
    4.03              639408        -1.55417e+07          4.6073e+08             875.822
    4.05              654529          -1.585e+07         4.67018e+08             878.195
    4.07              668769        -1.61395e+07         4.72843e+08             879.816
    4.09              682044        -1.64082e+07         4.78166e+08             880.678
    4.11              694271        -1.66545e+07         4.82953e+08             880.776
    4.13              705375        -1.68768e+07          4.8717e+08             880.107
    4.15              715286        -1.70738e+07         4.90787e+08             878.669
    4.17              723940         -1.7244e+07         4.93775e+08             876.461
    4.19              731281        -1.73863e+07         4.96111e+08             873.485
    4.21              737261        -1.74998e+07         4.97774e+08             869.744
    4.23              741842        -1.75836e+07         4.98746e+08             865.242
    4.25              744991        -1.76371e+07         4.99015e+08             859.987
    4.27              746688        -1.76599e+07         4.98572e+08             853.987
    4.29              746919        -1.76516e+07         4.97413e+08             847.253
    4.31              745684        -1.76122e+07         4.95536e+08             839.797
    4.33              742987        -1.75419e+07         4.92945e+08             831.635
    4.35              738845         -1.7441e+07          4.8965e+08             822.783
    4.37              733284          -1.731e+07         4.85662e+08             813.261
    4.39              726338        -1.71496e+07         4.80998e+08              803.09
    4.41              718049        -1.69607e+07         4.75678e+08             792.294
    4.43              708469        -1.67445e+07         4.69726e+08             780.897
    4.45              697657         -1.6502e+07         4.63171e+08             768.929
    4.47              685677        -1.62347e+07         4.56044e+08             756.417
    4.49              672603        -1.59441e+07         4.48378e+08             743.395
    4.51              658511        -1.56317e+07         4.40211e+08             729.895
    4.53              643483        -1.52994e+07         4.31581e+08             715.951
    4.55              627607        -1.49489e+07         4.22532e+08             701.601
    4.57              610972        -1.45822e+07         4.13104e+08             686.881
    4.59              593669         -1.4201e+07         4.03344e+08             671.829
    4.61              575793        -1.38075e+07         3.93296e+08             656.485
    4.63              557438        -1.34037e+07         3.83006e+08             640.889
    4.65              538697        -1.29914e+07          3.7252e+08              625.08
    4.67              519664        -1.25727e+07         3.61886e+08             609.098
    4.69              500432        -1.21496e+07         3.51148e+08             592.983
    4.71              481089         -1.1724e+07         3.40351e+08             576.776
    4.73              461723        -1.12978e+07         3.29541e+08             560.514
    4.75              442418        -1.08727e+07         3.18759e+08             544.236
    4.77              423251        -1.04504e+07         3.08047e+08             527.977
    4.79              404300        -1.00327e+07         2.97445e+08             511.772
    4.81              385633        -9.62112e+06         2.86991e+08             495.654
    4.83              367317        -9.21702e+06         2.76719e+08             479.655
    4.85              349413        -8.82179e+06         2.66665e+08             463.803
    4.87              331974        -8.43668e+06         2.56859e+08             448.124
    4.89              315051        -8.06281e+06          2.4733e+08             432.642
    4.91              298686        -7.70121e+06         2.38104e+08             417.378
    4.93              282919        -7.35278e+06         2.29207e+08              402.35
    4.95              267783        -7.01832e+06         2.20659e+08             387.572
    4.97              253305        -6.69851e+06         2.12479e+08             373.056
    4.99              239508        -6.39394e+06         2.04685e+08             358.811
    5.01              226408        -6.10509e+06         1.97291e+08             344.842
    5.03              214020        -5.83234e+06          1.9031e+08             331.152
    5.05              202352        -5.57597e+06          1.8375e+08             317.743
    5.07              191408        -5.33618e+06         1.77621e+08             304.613
    5.09              181189        -5.11309e+06         1.71929e+08             291.759
    5.11              171692        -4.90674e+06         1.66676e+08             279.179
    5.13              162911         -4.7171e+06         1.61865e+08             266.871
    5.15              154837        -4.54406e+06         1.57498e+08             254.833
    5.17              147458        -4.38748e+06         1.53571e+08             243.066
    5.19              140762        -4.24714e+06         1.50084e+08             231.575
    5.21              134733        -4.12278e+06         1.47032e+08             220.369
    5.23              129354        -4.01412e+06         1.44409e+08             209.461
    5.25              124607        -3.92081e+06         1.42209e+08             198.872
    5.27              120474         -3.8425e+06         1.40425e+08             188.627
    5.29              116934        -3.77881e+06         1.39049e+08             178.755
    5.31              113967        -3.72932e+06         1.38071e+08             169.293
    5.33              111555        -3.69364e+06         1.37482e+08             160.277
    5.35              109675        -3.67132e+06         1.37271e+08             151.749
    5.37              108310        -3.66195e+06         1.37428e+08             143.747
    5.39              107440        -3.66511e+06         1.37942e+08             136.311
    5.41              107046        -3.68036e+06         1.38801e+08             129.472
    5.43              107111         -3.7073e+06         1.39994e+08             123.261
    5.45              107618        -3.74553e+06         1.41509e+08               117.7
    5.47              108552        -3.79466e+06         1.43336e+08             112.805
    5.49              109900        -3.85434e+06         1.45464e+08             108.589
    5.51              111648        -3.92422e+06         1.47881e+08             105.054
    5.53              113786        -4.00399e+06         1.50577e+08             102.201
    5.55              116304        -4.09337e+06         1.53543e+08             100.024
    5.57              119195        -4.19209e+06         1.56768e+08             98.5167
    5.59              122452        -4.29993e+06         1.60245e+08             97.6685
    5.61              126072         -4.4167e+06         1.63964e+08             97.4687
    5.63              130051        -4.54222e+06         1.67919e+08             97.9059
    5.65              134388        -4.67637e+06         1.72101e+08             98.9693
    5.67              139085        -4.81904e+06         1.76506e+08             100.649
    5.69              144143        -4.97016e+06         1.81127e+08             102.935
    5.71              149566        -5.12969e+06         1.85958e+08             105.821
    5.73              155360         -5.2976e+06         1.90997e+08             109.299
    5.75              161531        -5.47391e+06         1.96237e+08             113.365
    5.77              168087        -5.65862e+06         2.01676e+08             118.013
    5.79              175037        -5.85178e+06          2.0731e+08             123.241
    5.81              182389        -6.05343e+06         2.13136e+08             129.046
    5.83              190155        -6.26362e+06          2.1915e+08             135.423
    5.85              198344        -6.48241e+06         2.25349e+08             142.373
    5.87              206967        -6.70982e+06          2.3173e+08              149.89
    5.89              216035        -6.94589e+06         2.38287e+08             157.972
    5.91              225557        -7.19063e+06         2.45017e+08             166.615
    5.93              235543        -7.44401e+06         2.51913e+08             175.814
    5.95              246002          -7.706e+06         2.58969e+08             185.562
    5.97              256940        -7.97649e+06         2.66177e+08             195.851
    5.99              268363        -8.25536e+06         2.73529e+08             206.672
    6.01              280276        -8.54241e+06         2.81013e+08             218.012
    6.03              292679        -8.83739e+06         2.88619e+08             229.858
    6.05              305573        -9.14001e+06         2.96331e+08             242.193
    6.07              318954        -9.44989e+06         3.04136e+08             254.997
    6.09              332816        -9.76658e+06         3.12015e+08             268.248
    6.11              347150        -1.00896e+07         3.19951e+08             281.921
    6.13              361944        -1.04183e+07         3.27921e+08             295.985
    6.15              377184         -1.0752e+07         3.35905e+08             310.408
    6.17              392848        -1.10901e+07         3.43877e+08             325.153
    6.19              408916        -1.14317e+07         3.51811e+08              340.18
    6.21              425361        -1.17759e+07          3.5968e+08             355.443
    6.23              442153        -1.21217e+07         3.67456e+08             370.893
    6.25              459259        -1.24683e+07         3.75108e+08             386.477
    6.27              476642        -1.28144e+07         3.82606e+08             402.137
    6.29              494262         -1.3159e+07         3.89918e+08             417.813
    6.31              512076        -1.35009e+07         3.97013e+08              433.44
    6.33              530038         -1.3839e+07         4.03859e+08             448.949
    6.35              548099         -1.4172e+07         4.10423e+08              464.27
    6.37              566206        -1.44988e+07         4.16676e+08             479.329
    6.39              584307         -1.4818e+07         4.22586e+08             494.051
    6.41              602346        -1.51285e+07         4.28124e+08              508.36
    6.43              620266        -1.54291e+07         4.33263e+08             522.179
    6.45              638010        -1.57185e+07         4.37978e+08             535.431
    6.47              655518        -1.59958e+07         4.42244e+08             548.042
    6.49              672733        -1.62598e+07          4.4604e+08             559.937
    6.51              689596        -1.65095e+07         4.49348e+08             571.046
    6.53              706049         -1.6744e+07         4.52152e+08             581.304
    6.55              722038        -1.69624e+07         4.54439e+08             590.647
    6.57              737507        -1.71639e+07         4.56201e+08             599.018
    6.59              752404         -1.7348e+07         4.57431e+08             606.369
    6.61              766679         -1.7514e+07         4.58128e+08             612.655
    6.63              780287        -1.76615e+07         4.58291e+08             617.841
    6.65              793183        -1.77902e+07         4.57926e+08               621.9
    6.67              805329        -1.78998e+07         4.57042e+08             624.813
    6.69              816689        -1.79902e+07         4.55649e+08              626.57
    6.71              827232        -1.80615e+07         4.53763e+08             627.172
    6.73              836933        -1.81139e+07         4.51402e+08             626.627
    6.75              845770        -1.81474e+07         4.48588e+08             624.954
    6.77              853727        -1.81627e+07         4.45343e+08             622.182
    6.79              860792          -1.816e+07         4.41695e+08             618.348
    6.81              866959          -1.814e+07         4.37673e+08             613.496
    6.83              872226        -1.81033e+07         4.33307e+08             607.682
    6.85              876598        -1.80508e+07         4.28629e+08             600.965
    6.87              880083        -1.79832e+07         4.23674e+08             593.415
    6.89              882695        -1.79014e+07         4.18476e+08             585.104
    6.91              884450        -1.78064e+07          4.1307e+08             576.113
    6.93              885372        -1.76993e+07         4.07492e+08             566.524
    6.95              885484         -1.7581e+07         4.01778e+08             556.423
    6.97              884818        -1.74527e+07         3.95963e+08               545.9
    6.99              883404        -1.73154e+07         3.90083e+08             535.043
    7.01              881277        -1.71703e+07         3.84171e+08             523.944
    7.03              878476        -1.70184e+07          3.7826e+08             512.691
    7.05              875038        -1.68608e+07         3.72382e+08             501.372
    7.07              871005        -1.66987e+07         3.66568e+08             490.073
    7.09              866417        -1.65329e+07         3.60845e+08             478.876
    7.11              861316        -1.63646e+07          3.5524e+08              467.86
    7.13              855745        -1.61946e+07         3.49779e+08             457.099
    7.15              849745        -1.60239e+07         3.44483e+08             446.662
    7.17              843358        -1.58534e+07         3.39373e+08             436.614
    7.19              836622        -1.56838e+07         3.34469e+08             427.012
    7.21              829579        -1.55158e+07         3.29787e+08             417.909
    7.23              822265        -1.53502e+07         3.25341e+08             409.353
    7.25              814715        -1.51876e+07         3.21144e+08             401.384
    7.27              806966        -1.50284e+07         3.17209e+08             394.037
    7.29              799047        -1.48733e+07         3.13543e+08              387.34
    7.31              790991        -1.47226e+07         3.10154e+08             381.319
    7.33              782826        -1.45768e+07          3.0705e+08             375.989
    7.35              774578        -1.44362e+07         3.04235e+08             371.364
    7.37              766271         -1.4301e+07         3.01712e+08             367.451
    7.39              757929        -1.41716e+07         2.99486e+08             364.252
    7.41              749572        -1.40482e+07         2.97557e+08             361.764
    7.43              741221        -1.39309e+07         2.95928e+08              359.98
    7.45              732894          -1.382e+07         2.94599e+08             358.888
    7.47              724608        -1.37155e+07          2.9357e+08             358.472
    7.49              716379        -1.36177e+07          2.9284e+08             358.711
    7.51              708222        -1.35265e+07          2.9241e+08             359.579
    7.53              700152        -1.34422e+07         2.92278e+08             361.048
    7.55              692182        -1.33647e+07         2.92443e+08             363.083
    7.57              684326        -1.32942e+07         2.92902e+08             365.647
    7.59              676597        -1.32308e+07         2.93654e+08             368.696
    7.61              669006        -1.31744e+07         2.94696e+08             372.184
    7.63              661566        -1.31252e+07         2.96025e+08              376.06
    7.65              654289        -1.30832e+07         2.97636e+08             380.269
    7.67              647185        -1.30484e+07         2.99526e+08             384.753
    7.69              640265        -1.30207e+07         3.01688e+08              389.45
    7.71              633539        -1.30002e+07         3.04116e+08             394.295
    7.73              627016        -1.29868e+07         3.06801e+08             399.222
    7.75              620704        -1.29803e+07         3.09735e+08             404.161
    7.77              614610        -1.29808e+07         3.12907e+08             409.043
    7.79              608738        -1.29878e+07         3.16305e+08             413.799
    7.81              603094        -1.30014e+07         3.19913e+08              418.36
    7.83              597679        -1.30211e+07         3.23717e+08             422.661
    7.85              592493        -1.30465e+07         3.27698e+08             426.639
    7.87              587534        -1.30774e+07         3.31836e+08             430.234
    7.89              582798        -1.31132e+07         3.36109e+08             433.393
    7.91              578276        -1.31534e+07         3.40494e+08             436.068
    7.93              573961        -1.31973e+07         3.44963e+08             438.219
    7.95              569840        -1.32443e+07          3.4949e+08             439.812
    7.97              565897        -1.32937e+07         3.54045e+08             440.821
    7.99              562117        -1.33446e+07         3.58596e+08              441.23
    8.01              558478        -1.33962e+07         3.63112e+08             441.029
    8.03              554959        -1.34475e+07         3.67558e+08             440.215
    8.05              551535        -1.34978e+07         3.71901e+08             438.796
    8.07              548179        -1.35459e+07         3.76106e+08             436.783
    8.09              544865        -1.35909e+07         3.80137e+08             434.196
    8.11              541562        -1.36317e+07         3.83961e+08             431.058
    8.13              538240        -1.36674e+07         3.87542e+08             427.399
    8.15              534869         -1.3697e+07         3.90849e+08              423.25
    8.17              531418        -1.37194e+07          3.9385e+08             418.646
    8.19              527855        -1.37339e+07         3.96514e+08             413.624
    8.21              524152        -1.37394e+07         3.98815e+08             408.221
    8.23              520279        -1.37351e+07         4.00728e+08             402.473
    8.25              516211        -1.37205e+07         4.02232e+08             396.418
    8.27              511922        -1.36947e+07         4.03307e+08             390.092
    8.29              507391        -1.36572e+07         4.03939e+08             383.529
    8.31              502598        -1.36077e+07         4.04117e+08             376.763
    8.33              497528        -1.35458e+07         4.03835e+08             369.823
    8.35              492169        -1.34713e+07          4.0309e+08             362.739
    8.37              486511        -1.33841e+07         4.01883e+08              355.54
    8.39              480551        -1.32843e+07         4.00222e+08             348.249
    8.41              474288        -1.31721e+07         3.98115e+08             340.891
    8.43              467727        -1.30479e+07         3.95579e+08              333.49
    8.45              460875        -1.29119e+07         3.92632e+08             326.065
    8.47              453744         -1.2765e+07         3.89296e+08             318.636
    8.49              446351        -1.26076e+07         3.85598e+08             311.224
    8.51              438715        -1.24407e+07         3.81569e+08             303.846
    8.53              430859        -1.22652e+07          3.7724e+08              296.52
    8.55              422809        -1.20819e+07         3.72646e+08             289.262
    8.57              414595         -1.1892e+07         3.67826e+08              282.09
    8.59              406247        -1.16966e+07         3.62819e+08             275.018
    8.61              397799        -1.14968e+07         3.57663e+08             268.061
    8.63              389286        -1.12938e+07           3.524e+08             261.235
    8.65              380741        -1.10889e+07         3.47071e+08             254.551
    8.67              372202        -1.08831e+07         3.41716e+08             248.024
    8.69              363703        -1.06777e+07         3.36374e+08             241.664
    8.71              355280        -1.04739e+07         3.31084e+08             235.482
    8.73              346965        -1.02726e+07          3.2588e+08             229.486
    8.75              338792        -1.00749e+07         3.20797e+08             223.685
    8.77              330790        -9.88186e+06         3.15866e+08             218.085
    8.79              322986        -9.69419e+06         3.11112e+08              212.69
    8.81              315406        -9.51269e+06         3.06561e+08             207.504
    8.83              308071        -9.33801e+06         3.02233e+08             202.529
    8.85              300998        -9.17069e+06         2.98144e+08             197.767
    8.87              294204        -9.01114e+06         2.94305e+08             193.215
    8.89              287698        -8.85964e+06         2.90725e+08             188.874
    8.91              281487        -8.71636e+06         2.87406e+08             184.741
    8.93              275576        -8.58134e+06         2.84349e+08             180.813
    8.95              269963        -8.45451e+06         2.81548e+08             177.087
    8.97              264645        -8.33565e+06         2.78993e+08              173.56
    8.99              259614        -8.22446e+06         2.76673e+08             170.227
    9.01              254859        -8.12052e+06         2.74571e+08             167.084
    9.03              250365        -8.02331e+06         2.72667e+08             164.128
    9.05              246117        -7.93225e+06         2.70938e+08             161.353
    9.07              242095        -7.84664e+06          2.6936e+08             158.756
    9.09              238277        -7.76575e+06         2.67905e+08              156.33
    9.11              234640        -7.68878e+06         2.66545e+08             154.071
    9.13              231159         -7.6149e+06         2.65248e+08              151.97
    9.15              227810        -7.54326e+06         2.63984e+08             150.021
    9.17              224566        -7.47298e+06         2.62722e+08             148.216
    9.19              221401        -7.40318e+06         2.61429e+08             146.544
    9.21              218289        -7.33301e+06         2.60075e+08             144.993
    9.23              215204        -7.26163e+06         2.58629e+08             143.553
    9.25              212121        -7.18825e+06         2.57064e+08             142.211
    9.27              209018        -7.11211e+06         2.55351e+08             140.951
    9.29              205873        -7.03251e+06         2.53466e+08             139.758
    9.31              202666        -6.94882e+06         2.51386e+08             138.616
    9.33              199378        -6.86048e+06         2.49091e+08             137.507
    9.35              195994        -6.76699e+06         2.46563e+08             136.416
    9.37              192501        -6.66797e+06         2.43789e+08             135.324
    9.39              188888        -6.56309e+06         2.40756e+08             134.215
    9.41              185146        -6.45213e+06         2.37456e+08             133.073
    9.43              181270        -6.33494e+06         2.33884e+08             131.881
    9.45              177256        -6.21147e+06          2.3004e+08             130.625
    9.47              173103        -6.08175e+06         2.25923e+08             129.291
    9.49              168814        -5.94591e+06         2.21538e+08             127.867
    9.51              164392        -5.80414e+06         2.16894e+08             126.341
    9.53              159844        -5.65671e+06         2.11999e+08             124.706
    9.55              155177        -5.50396e+06         2.06867e+08             122.953
    9.57              150402        -5.34629e+06         2.01513e+08             121.076
    9.59              145530        -5.18417e+06         1.95954e+08             119.073
    9.61              140575         -5.0181e+06         1.90209e+08             116.941
    9.63              135551        -4.84864e+06         1.84299e+08             114.679
    9.65              130472        -4.67635e+06         1.78246e+08             112.291
    9.67              125356        -4.50187e+06         1.72074e+08             109.778
    9.69              120218        -4.32579e+06         1.65805e+08             107.147
    9.71              115075        -4.14877e+06         1.59465e+08             104.403
    9.73              109944        -3.97144e+06         1.53078e+08             101.555
    9.75              104842        -3.79442e+06         1.46669e+08             98.6118
    9.77             99784.6        -3.61834e+06         1.40261e+08             95.5832
    9.79             94788.2         -3.4438e+06         1.33879e+08             92.4804
    9.81             89867.8        -3.27137e+06         1.27545e+08             89.3153
    9.83             85037.8         -3.1016e+06         1.21282e+08             86.1003
    9.85             80311.2          -2.935e+06         1.15109e+08             82.8471
    9.87             75701.1        -2.77207e+06         1.09047e+08             79.5708
    9.89             71218.4        -2.61323e+06         1.03115e+08             76.2834
    9.91               66873        -2.45889e+06         9.73272e+07             72.9979
    9.93               62674        -2.30938e+06         9.17005e+07              69.727
    9.95             58628.8        -2.16503e+06         8.62478e+07             66.4833
    9.97             54743.8        -2.02609e+06          8.0981e+07             63.2788
    9.99               51024        -1.89278e+06         7.59101e+07             60.1248
   10.01             47473.3        -1.76527e+06         7.10436e+07             57.0323
   10.03             44094.2        -1.64369e+06         6.63882e+07             54.0113
   10.05             40888.2        -1.52813e+06         6.19492e+07              51.071
   10.07             37855.8        -1.41863e+06         5.77302e+07             48.2199
   10.09             34996.2        -1.31519e+06         5.37334e+07             45.4653
   10.11             32307.9        -1.21781e+06         4.99595e+07              42.814
   10.13             29788.3         -1.1264e+06         4.64081e+07             40.2716
   10.15             27434.1        -1.04089e+06         4.30774e+07             37.8426
   10.17             25241.5             -961148         3.99647e+07             35.5309
   10.19             23205.6             -887045          3.7066e+07             33.3393
   10.21             21321.4             -818415         3.43768e+07             31.2695
   10.23             19583.4             -755078         3.18914e+07             29.3226
   10.25             17985.4             -696839         2.96039e+07             27.4985
   10.27             16521.2             -643491         2.75074e+07             25.7966
   10.29             15184.3             -594817         2.55948e+07             24.2152
   10.31             13968.1             -550594         2.38586e+07             22.7519
   10.33             12865.9             -510590         2.22907e+07             21.4037
   10.35             11870.8             -474577         2.08832e+07             20.1666
   10.37             10976.3             -442321         1.96279e+07             19.0364
   10.39             10175.5             -413590         1.85166e+07             18.0081
   10.41             9462.13             -388159         1.75409e+07             17.0764
   10.43             8829.64             -365800         1.66926e+07             16.2355
   10.45              8271.9             -346295         1.59637e+07             15.4797
   10.47             7782.96             -329431         1.53462e+07             14.8029
   10.49             7357.06             -315002         1.48323e+07             14.1991
   10.51             6988.73             -302808         1.44144e+07             13.6626
   10.53             6672.74             -292660         1.40851e+07             13.1879
   10.55             6404.13             -284376         1.38374e+07             12.7696
   10.57             6178.23             -277780         1.36642e+07              12.403
   10.59             5990.61             -272708         1.35591e+07             12.0834
   10.61             5836.97             -268999         1.35154e+07             11.8064
   10.63              5713.7             -266513         1.35273e+07              11.568
   10.65             5617.23             -265111         1.35889e+07             11.3659
   10.67             5544.05             -264656         1.36944e+07             11.1955
   10.69             5491.05             -265026         1.38386e+07             11.0534
   10.71             5455.35             -266105         1.40163e+07             10.9364
   10.73              5434.3             -267784         1.42225e+07             10.8412
   10.75             5425.44             -269961         1.44525e+07             10.7646
   10.77             5426.53             -272540         1.47019e+07             10.7033
   10.79             5435.51             -275434         1.49664e+07             10.6544
   10.81             5450.51             -278558         1.52418e+07             10.6147
   10.83             5469.81             -281836         1.55242e+07             10.5813
   10.85             5491.85             -285195         1.58099e+07             10.5517
   10.87             5515.22             -288568         1.60954e+07             10.5231
   10.89             5538.66             -291894         1.63773e+07             10.4933
   10.91             5561.02             -295116         1.66523e+07             10.4602
   10.93              5581.3             -298181         1.69176e+07             10.4219
   10.95             5598.57             -301040         1.71702e+07             10.3767
   10.97             5612.06             -303650         1.74075e+07             10.3235
   10.99             5621.07             -305972         1.76271e+07             10.2612
   11.01             5625.02             -307971         1.78267e+07             10.1889
   11.03             5623.41             -309614         1.80042e+07             10.1064
   11.05             5615.84             -310877         1.81578e+07             10.0133
   11.07             5601.99             -311734         1.82859e+07             9.90997
   11.09             5581.63             -312169         1.83871e+07             9.79665
   11.11             5554.61             -312167         1.84601e+07             9.67407
   11.13             5520.88             -311717          1.8504e+07             9.54319
   11.15             5480.43             -310813         1.85181e+07             9.40523
   11.17             5433.36             -309452          1.8502e+07             9.26165
   11.19             5379.82             -307638         1.84553e+07             9.11416
   11.21             5320.05             -305376         1.83781e+07             8.96472
   11.23             5254.35             -302675         1.82706e+07             8.81549
   11.25             5183.09             -299551         1.81334e+07             8.66886
   11.27             5106.71             -296019         1.79671e+07              8.5274
   11.29              5025.7             -292103         1.77727e+07             8.39387
   11.31             4940.63             -287826         1.75514e+07             8.27118
   11.33              4852.1             -283217         1.73046e+07             8.16236
   11.35              4760.8             -278307         1.70338e+07             8.07053
   11.37             4667.45             -273131         1.67409e+07             7.99899
   11.39              4572.8             -267726         1.64278e+07             7.95063
   11.41             4477.66             -262130         1.60967e+07             7.92864
   11.43             4382.88             -256387         1.57497e+07             7.93588
   11.45             4289.34             -250538         1.53893e+07             7.97494
   11.47             4197.95             -244631          1.5018e+07             8.04803
   11.49             4109.64             -238710         1.46383e+07             8.15678
   11.51             4025.35             -232823         1.42528e+07             8.30215
   11.53             3946.05             -227019         1.38642e+07             8.48425
   11.55              3872.7             -221344         1.34753e+07             8.70218
   11.57             3806.14             -215844         1.30885e+07             8.95322
   11.59              3747.6             -210574         1.27069e+07             9.23562
   11.61             3697.87             -205576         1.23328e+07             9.54391
   11.63             3657.86             -200896         1.19688e+07             9.87227
   11.65             3628.49             -196577         1.16173e+07             10.2137
   11.67              3610.6             -192662         1.12809e+07             10.5604
   11.69             3605.02             -189190         1.09615e+07             10.9038
   11.71             3612.52             -186198         1.06615e+07             11.2352
   11.73             3633.83             -183722         1.03826e+07             11.5463
   11.75             3669.59             -181793         1.01267e+07             11.8293
   11.77             3720.39             -180438         9.89539e+06             12.0779
   11.79             3786.75             -179683         9.69003e+06             12.2873
   11.81             3869.09             -179547         9.51182e+06             12.4545
   11.83             3967.77             -180048         9.36173e+06             12.5784
   11.85             4083.02             -181197         9.24053e+06               12.66
   11.87             4215.01             -183004         9.14877e+06             12.7019
   11.89             4363.77             -185470         9.08677e+06             12.7082
   11.91             4529.26             -188596         9.05461e+06             12.6841
   11.93              4711.3             -192375         9.05217e+06             12.6354
   11.95             4909.61             -196797         9.07909e+06             12.5684
   11.97             5123.78             -201848         9.13481e+06             12.4893
   11.99             5353.31             -207507         9.21853e+06             12.4038
   12.01             5597.56             -213751         9.32928e+06             12.3176
   12.03             5855.79             -220551         9.46587e+06             12.2352
   12.05             6127.14             -227875         9.62694e+06             12.1607
   12.07             6410.64             -235686         9.81096e+06             12.0972
   12.09             6705.21             -243944         1.00162e+07             12.0473
   12.11              7009.7             -252605         1.02409e+07             12.0124
   12.13             7322.82             -261622         1.04831e+07             11.9935
   12.15             7643.26             -270946         1.07407e+07              11.991
   12.17             7969.58             -280526         1.10116e+07             12.0045
   12.19             8300.32             -290308         1.12936e+07             12.0333
   12.21             8633.96             -300237         1.15844e+07             12.0762
   12.23             8968.94             -310257         1.18818e+07             12.1317
   12.25             9303.69             -320314         1.21835e+07             12.1979
   12.27             9636.62             -330351         1.24874e+07             12.2729
   12.29             9966.18             -340315         1.27911e+07             12.3546
   12.31             10290.8             -350153         1.30927e+07             12.4407
   12.33             10609.1             -359813         1.33902e+07             12.5291
   12.35             10919.5             -369248         1.36816e+07             12.6175
   12.37             11220.8             -378414         1.39652e+07             12.7038
   12.39             11511.7             -387269         1.42395e+07             12.7858
   12.41               11791             -395778         1.45031e+07             12.8617
   12.43             12057.8             -403908         1.47549e+07             12.9296
   12.45             12311.2             -411634         1.49937e+07              12.988
   12.47             12550.5             -418936          1.5219e+07             13.0354
   12.49             12775.1             -425799         1.54302e+07             13.0706
   12.51             12984.8             -432216         1.56271e+07             13.0926
   12.53             13179.3             -438184         1.58097e+07             13.1008
   12.55             13358.7             -443711         1.59783e+07             13.0945
   12.57             13523.2             -448807         1.61334e+07             13.0735
   12.59             13673.2             -453491         1.62758e+07             13.0378
   12.61             13809.3             -457790         1.64065e+07             12.9874
   12.63             13932.2             -461734         1.65267e+07             12.9229
   12.65               14043             -465361          1.6638e+07             12.8447
   12.67             14142.8             -468714          1.6742e+07             12.7537
   12.69             14232.9             -471842         1.68406e+07             12.6507
   12.71             14314.7             -474797         1.69359e+07             12.5368
   12.73             14389.8             -477636         1.70299e+07             12.4132
   12.75             14459.9             -480419          1.7125e+07             12.2812
   12.77             14526.7             -483208         1.72235e+07             12.1421
   12.79               14592             -486068         1.73277e+07             11.9973
   12.81             14657.7             -489062         1.74402e+07             11.8482
   12.83             14725.6             -492255         1.75633e+07             11.6962
   12.85             14797.7             -495710         1.76993e+07             11.5426
   12.87             14875.7             -499490         1.78506e+07             11.3889
   12.89             14961.4             -503651         1.80191e+07             11.2363
   12.91             15056.4             -508250         1.82069e+07              11.086
   12.93             15162.3             -513336         1.84158e+07             10.9392
   12.95             15280.6             -518953         1.86474e+07             10.7971
   12.97             15412.4             -525142         1.89029e+07             10.6608
   12.99             15558.8             -531932         1.91836e+07             10.5312
   13.01             15720.9             -539350         1.94901e+07             10.4093
   13.03             15899.1             -547411         1.98229e+07             10.2961
   13.05               16094             -556123         2.01822e+07             10.1925
   13.07             16305.9             -565487         2.05678e+07             10.0994
   13.09             16534.6             -575494         2.09793e+07             10.0179
   13.11               16780             -586125         2.14158e+07             9.94878
   13.13             17041.7             -597355          2.1876e+07             9.89302
   13.15             17318.8             -609148         2.23586e+07              9.8516
   13.17             17610.6             -621462         2.28616e+07             9.82547
   13.19             17915.8             -634245          2.3383e+07             9.81565
   13.21             18233.2             -647441         2.39204e+07             9.82313
   13.23             18561.4             -660984         2.44711e+07             9.84892
   13.25             18898.6             -674804         2.50322e+07             9.89404
   13.27             19243.3             -688827         2.56006e+07             9.95955
   13.29             19593.4             -702973          2.6173e+07             10.0465
   13.31             19947.1             -717160         2.67462e+07             10.1559
   13.33             20302.6             -731304         2.73165e+07             10.2888
   13.35             20657.7             -745321         2.78804e+07             10.4463
   13.37             21010.7             -759125         2.84345e+07             10.6296
   13.39             21359.6             -772634         2.89751e+07             10.8398
   13.41             21702.7             -785766         2.94988e+07             11.0778
   13.43             22038.3             -798445         3.00023e+07              11.345
   13.45             22364.9             -810597         3.04823e+07             11.6424
   13.47             22681.1             -822155         3.09359e+07             11.9713
   13.49             22985.9             -833059         3.13602e+07             12.3326
   13.51             23278.2             -843254         3.17526e+07             12.7275
   13.53             23557.5             -852696         3.21109e+07             13.1569
   13.55             23823.2             -861346         3.24331e+07             13.6218
   13.57             24075.2             -869178         3.27175e+07             14.1229
   13.59             24313.5             -876172         3.29629e+07             14.6606
   13.61             24538.6             -882319         3.31682e+07             15.2351
   13.63             24751.1             -887620         3.33329e+07             15.8463
   13.65             24951.8             -892086         3.34567e+07             16.4937
   13.67             25141.8             -895736         3.35398e+07             17.1761
   13.69             25322.6             -898598         3.35826e+07              17.892
   13.71             25495.8             -900711          3.3586e+07              18.639
   13.73               25663             -902121         3.35511e+07             19.4142
   13.75             25826.2             -902880         3.34794e+07             20.2138
   13.77             25987.6             -903047         3.33727e+07             21.0333
   13.79             26149.3             -902692         3.32331e+07             21.8675
   13.81             26313.4             -901879         3.30628e+07             22.7098
   13.83             26482.3             -900684         3.28643e+07             23.5534
   13.85             26658.2             -899184         3.26402e+07             24.3908
   13.87             26843.2             -897454         3.23933e+07             25.2137
   13.89             27039.6             -895574         3.21266e+07             26.0136
   13.91             27249.1             -893621         3.18429e+07             26.7817
   13.93             27473.7             -891668         3.15453e+07             27.5091
   13.95               27715             -889787         3.12367e+07             28.1873
   13.97             27974.2             -888045         3.09201e+07              28.808
   13.99             28252.5             -886504         3.05983e+07             29.3637
   14.01             28550.6             -885219          3.0274e+07             29.8478
   14.03             28869.1             -884240         2.99498e+07             30.2548
   14.05             29207.9             -883607         2.96281e+07             30.5804
   14.07               29567             -883352         2.93111e+07             30.8218
   14.09             29945.6             -883499         2.90009e+07             30.9776
   14.11             30342.8             -884063         2.86991e+07             31.0478
   14.13             30757.4             -885049         2.84074e+07              31.034
   14.15             31187.5             -886454         2.81269e+07             30.9389
   14.17             31631.3             -888263         2.78587e+07             30.7669
   14.19             32086.3             -890456         2.76034e+07              30.523
   14.21             32549.8             -893001         2.73616e+07             30.2135
   14.23             33019.1             -895861         2.71334e+07             29.8453
   14.25             33490.9             -898988         2.69189e+07             29.4257
   14.27             33961.9             -902332         2.67177e+07             28.9624
   14.29             34428.7             -905835         2.65293e+07             28.4634
   14.31             34887.6             -909434         2.63532e+07             27.9365
   14.33             35335.1             -913063         2.61883e+07             27.3892
   14.35             35767.5             -916656         2.60338e+07             26.8288
   14.37             36181.3             -920143         2.58884e+07             26.2623
   14.39             36573.1             -923455         2.57511e+07             25.6957
   14.41             36939.6             -926527         2.56204e+07             25.1349
   14.43             37277.7             -929293         2.54953e+07             24.5848
   14.45             37584.8             -931695         2.53742e+07             24.0498
   14.47             37858.3             -933677         2.52561e+07             23.5334
   14.49             38096.4             -935191         2.51396e+07             23.0386
   14.51             38297.3             -936198         2.50238e+07             22.5678
   14.53             38459.9             -936666         2.49076e+07             22.1225
   14.55             38583.7             -936572         2.47902e+07             21.7039
   14.57             38668.5             -935907          2.4671e+07             21.3125
   14.59             38714.8             -934668         2.45496e+07             20.9483
   14.61             38723.7             -932869         2.44257e+07              20.611
   14.63             38696.8             -930532         2.42993e+07             20.2999
   14.65             38636.4             -927693         2.41707e+07              20.014
   14.67             38545.3             -924401         2.40403e+07             19.7519
   14.69             38427.1             -920717         2.39089e+07             19.5124
   14.71             38285.7             -916715         2.37776e+07             19.2939
   14.73             38125.7             -912479         2.36477e+07              19.095
   14.75             37952.4             -908107         2.35206e+07             18.9139
   14.77             37771.2             -903706         2.33981e+07             18.7494
   14.79             37588.4             -899395         2.32822e+07             18.6002
   14.81             37410.6             -895299         2.31753e+07              18.465
   14.83             37244.5             -891555         2.30797e+07              18.343
   14.85             37097.4             -888304          2.2998e+07             18.2336
   14.87             36976.8             -885695         2.29329e+07             18.1363
   14.89             36890.4             -883880         2.28875e+07              18.051
   14.91               36846             -883015         2.28646e+07             17.9781
   14.93             36851.5             -883257         2.28673e+07             17.9178
   14.95             36914.9             -884764         2.28987e+07             17.8712
   14.97             37043.9             -887693          2.2962e+07             17.8392
   14.99             37246.2             -892197         2.30602e+07             17.8232
   15.01             37529.4             -898427         2.31963e+07             17.8247
   15.03             37900.6             -906523         2.33731e+07             17.8453
   15.05             38366.7             -916622         2.35936e+07             17.8869
   15.07               38934             -928852         2.38603e+07             17.9513
   15.09             39608.6             -943329         2.41756e+07             18.0404
   15.11             40395.9             -960158         2.45417e+07             18.1563
   15.13             41300.4             -979430         2.49606e+07             18.3008
   15.15             42326.5        -1.00122e+06         2.54339e+07             18.4758
   15.17             43477.4         -1.0256e+06          2.5963e+07             18.6832
   15.19             44755.6         -1.0526e+06         2.65488e+07             18.9249
   15.21             46162.9        -1.08226e+06          2.7192e+07             19.2026
   15.23               47700        -1.11458e+06         2.78929e+07             19.5182
   15.25               49367        -1.14956e+06         2.86513e+07             19.8735
   15.27             51162.7        -1.18716e+06         2.94667e+07             20.2702
   15.29             53085.1        -1.22734e+06         3.03382e+07               20.71
   15.31               55131        -1.27001e+06         3.12643e+07             21.1948
   15.33             57296.5         -1.3151e+06         3.22432e+07             21.7263
   15.35             59576.4        -1.36249e+06         3.32728e+07             22.3061
   15.37             61964.6        -1.41204e+06         3.43503e+07             22.9359
   15.39             64453.8        -1.46361e+06         3.54727e+07             23.6172
   15.41               67036        -1.51701e+06         3.66364e+07             24.3515
   15.43             69701.8        -1.57205e+06         3.78376e+07             25.1402
   15.45             72441.2        -1.62853e+06          3.9072e+07             25.9844
   15.47             75243.2        -1.68621e+06          4.0335e+07             26.8852
   15.49             78095.8        -1.74484e+06         4.16215e+07             27.8433
   15.51             80986.4        -1.80417e+06         4.29263e+07             28.8594
   15.53             83901.7        -1.86392e+06         4.42438e+07             29.9336
   15.55             86827.4        -1.92381e+06         4.55683e+07             31.0662
   15.57             89749.1        -1.98354e+06         4.68937e+07             32.2567
   15.59             92651.7         -2.0428e+06         4.82138e+07             33.5046
   15.61             95519.8        -2.10128e+06         4.95223e+07             34.8088
   15.63             98337.7        -2.15868e+06         5.08129e+07             36.1681
   15.65              101090        -2.21467e+06          5.2079e+07             37.5807
   15.67              103760        -2.26894e+06         5.33142e+07             39.0445
   15.69              106333        -2.32119e+06         5.45123e+07             40.5569
   15.71              108793         -2.3711e+06         5.56668e+07             42.1149
   15.73              111126        -2.41839e+06         5.67717e+07             43.7151
   15.75              113316        -2.46277e+06         5.78212e+07             45.3537
   15.77              115351        -2.50396e+06         5.88094e+07             47.0265
   15.79              117216        -2.54172e+06         5.97311e+07             48.7286
   15.81              118900        -2.57581e+06         6.05812e+07             50.4551
   15.83              120392        -2.60602e+06         6.13551e+07             52.2003
   15.85              121682        -2.63215e+06         6.20486e+07             53.9583
   15.87              122760        -2.65403e+06         6.26581e+07              55.723
   15.89              123620        -2.67154e+06         6.31802e+07             57.4876
   15.91              124255        -2.68455e+06         6.36122e+07             59.2453
   15.93              124662        -2.69298e+06         6.39522e+07              60.989
   15.95              124836        -2.69678e+06         6.41984e+07             62.7112
   15.97              124776        -2.69593e+06           6.435e+07             64.4044
   15.99              124483        -2.69045e+06         6.44067e+07             66.0609
   16.01              123958        -2.68036e+06         6.43687e+07              67.673
   16.03              123204        -2.66575e+06          6.4237e+07             69.2331
   16.05              122227        -2.64672e+06         6.40132e+07             70.7333
   16.07              121032         -2.6234e+06         6.36995e+07             72.1662
   16.09              119627        -2.59596e+06         6.32985e+07             73.5244
   16.11              118022        -2.56459e+06         6.28138e+07             74.8009
   16.13              116227         -2.5295e+06         6.22491e+07             75.9887
   16.15              114254        -2.49094e+06          6.1609e+07             77.0815
   16.17              112115        -2.44917e+06         6.08984e+07             78.0731
   16.19              109825        -2.40447e+06         6.01227e+07             78.9581
   16.21              107397        -2.35715e+06         5.92877e+07             79.7314
   16.23              104849        -2.30752e+06         5.83995e+07             80.3885
   16.25              102194        -2.25591e+06         5.74647e+07             80.9254
   16.27             99450.9        -2.20265e+06           5.649e+07             81.3389
   16.29               96635        -2.14809e+06         5.54824e+07             81.6261
   16.31             93763.5        -2.09258e+06          5.4449e+07             81.7851
   16.33             90853.2        -2.03645e+06          5.3397e+07             81.8143
   16.35             87920.8        -1.98006e+06         5.23337e+07             81.7128
   16.37             84982.7        -1.92374e+06         5.12663e+07             81.4802
   16.39               82055        -1.86783e+06         5.02019e+07             81.1169
   16.41               79153        -1.81263e+06         4.91476e+07             80.6235
   16.43             76291.5        -1.75847e+06         4.81102e+07             80.0013
   16.45             73484.6        -1.70562e+06         4.70964e+07              79.252
   16.47             70745.4        -1.65438e+06         4.61123e+07             78.3777
   16.49             68086.1        -1.60497e+06         4.51641e+07              77.381
   16.51             65517.8        -1.55766e+06         4.42573e+07             76.2649
   16.53             63050.7        -1.51263e+06         4.33971e+07             75.0329
   16.55             60693.7        -1.47008e+06         4.25882e+07             73.6888
   16.57             58454.5        -1.43018e+06         4.18349e+07             72.2373
   16.59             56339.8        -1.39306e+06         4.11409e+07             70.6834
   16.61             54354.9        -1.35883e+06         4.05096e+07             69.0331
   16.63               52504        -1.32759e+06         3.99435e+07              67.293
   16.65             50790.1        -1.29938e+06         3.94448e+07             65.4708
   16.67             49214.8        -1.27425e+06         3.90151e+07             63.5753
   16.69               47779        -1.25221e+06         3.86554e+07             61.6165
   16.71             46482.2        -1.23324e+06         3.83662e+07             59.6055
   16.73             45322.8        -1.21731e+06         3.81475e+07             57.5547
   16.75             44298.4        -1.20435e+06         3.79987e+07             55.4776
   16.77             43405.6         -1.1943e+06         3.79186e+07             53.3885
   16.79             42640.2        -1.18705e+06         3.79058e+07             51.3026
   16.81             41997.1        -1.18248e+06         3.79582e+07             49.2356
   16.83             41470.6        -1.18046e+06         3.80735e+07             47.2032
   16.85             41054.4        -1.18085e+06         3.82486e+07             45.2208
   16.87             40741.7        -1.18349e+06         3.84807e+07             43.3032
   16.89             40525.2         -1.1882e+06          3.8766e+07             41.4643
   16.91             40397.2        -1.19481e+06         3.91009e+07             39.7166
   16.93             40349.8        -1.20314e+06         3.94815e+07             38.0712
   16.95             40374.9        -1.21299e+06         3.99035e+07             36.5375
   16.97             40464.4        -1.22418e+06         4.03627e+07              35.123
   16.99               40610        -1.23651e+06         4.08546e+07             33.8336
   17.01             40803.6        -1.24978e+06         4.13749e+07             32.6733
   17.03               41037        -1.26381e+06          4.1919e+07             31.6445
   17.05             41302.6        -1.27841e+06         4.24825e+07              30.748
   17.07             41592.6         -1.2934e+06         4.30611e+07             29.9832
   17.09             41899.7         -1.3086e+06         4.36504e+07             29.3481
   17.11               42217        -1.32386e+06         4.42462e+07             28.8399
   17.13             42537.9          -1.339e+06         4.48445e+07             28.4544
   17.15             42856.3        -1.35389e+06         4.54415e+07             28.1871
   17.17             43166.4        -1.36838e+06         4.60335e+07             28.0323
   17.19             43463.2        -1.38235e+06         4.66171e+07             27.9841
   17.21             43741.7        -1.39569e+06          4.7189e+07             28.0362
   17.23             43997.9        -1.40829e+06         4.77463e+07             28.1816
   17.25             44228.1        -1.42006e+06         4.82863e+07             28.4133
   17.27               44429        -1.43092e+06         4.88064e+07             28.7243
   17.29               44598         -1.4408e+06         4.93043e+07             29.1073
   17.31               44733        -1.44965e+06         4.97782e+07             29.5555
   17.33               44832        -1.45742e+06         5.02262e+07              30.061
   17.35               44894        -1.46408e+06         5.06468e+07             30.6173
   17.37             44918.1         -1.4696e+06         5.10386e+07             31.2176
   17.39             44903.9        -1.47397e+06         5.14007e+07             31.8556
   17.41             44851.3        -1.47718e+06          5.1732e+07             32.5252
   17.43             44760.8        -1.47923e+06         5.20318e+07              33.221
   17.45             44632.9        -1.48013e+06         5.22996e+07              33.938
   17.47             44468.6         -1.4799e+06         5.25349e+07             34.6719
   17.49             44269.1        -1.47855e+06         5.27376e+07             35.4189
   17.51             44035.9        -1.47611e+06         5.29075e+07             36.1763
   17.53             43770.6        -1.47262e+06         5.30445e+07              36.942
   17.55             43475.1         -1.4681e+06         5.31488e+07             37.7147
   17.57             43151.3        -1.46259e+06         5.32206e+07             38.4944
   17.59             42801.3        -1.45613e+06           5.326e+07             39.2817
   17.61             42427.3        -1.44876e+06         5.32676e+07             40.0787
   17.63             42031.6        -1.44052e+06         5.32437e+07              40.888
   17.65             41616.6        -1.43146e+06         5.31887e+07             41.7138
   17.67             41184.6        -1.42161e+06         5.31032e+07             42.5612
   17.69             40738.1        -1.41103e+06         5.29878e+07             43.4362
   17.71             40279.5        -1.39974e+06         5.28431e+07             44.3463
   17.73             39811.3        -1.38781e+06         5.26699e+07             45.2996
   17.75             39335.8        -1.37527e+06         5.24689e+07             46.3053
   17.77             38855.7        -1.36216e+06         5.22408e+07             47.3734
   17.79             38373.3        -1.34853e+06         5.19864e+07             48.5148
   17.81             37891.1        -1.33442e+06         5.17068e+07             49.7407
   17.83             37411.4        -1.31988e+06         5.14027e+07              51.063
   17.85             36936.7        -1.30494e+06         5.10752e+07             52.4937
   17.87             36469.4        -1.28965e+06         5.07252e+07             54.0448
   17.89             36011.7        -1.27405e+06         5.03538e+07             55.7281
   17.91             35566.1        -1.25819e+06         4.99622e+07             57.5548
   17.93             35134.8         -1.2421e+06         4.95513e+07             59.5354
   17.95               34720        -1.22583e+06         4.91223e+07             61.6791
   17.97             34324.1        -1.20942e+06         4.86765e+07             63.9936
   17.99             33949.1        -1.19291e+06         4.82149e+07             66.4851
   18.01             33597.2        -1.17634e+06         4.77388e+07             69.1573
   18.03             33270.5        -1.15976e+06         4.72495e+07             72.0114
   18.05             32970.9        -1.14321e+06          4.6748e+07             75.0462
   18.07             32700.4        -1.12672e+06         4.62356e+07             78.2571
   18.09             32460.9        -1.11034e+06         4.57135e+07             81.6364
   18.11               32254        -1.09411e+06         4.51829e+07             85.1732
   18.13             32081.4        -1.07807e+06         4.46448e+07             88.8529
   18.15             31944.6        -1.06225e+06         4.41003e+07             92.6577
   18.17             31845.1        -1.04669e+06         4.35506e+07             96.5667
   18.19             31784.1        -1.03142e+06         4.29965e+07             100.556
   18.21             31762.6        -1.01649e+06         4.24391e+07             104.599
   18.23             31781.8        -1.00191e+06         4.18791e+07             108.666
   18.25             31842.2             -987722         4.13175e+07             112.728
   18.27             31944.7             -973952         4.07549e+07             116.753
   18.29             32089.6             -960624         4.01921e+07              120.71
   18.31             32277.1             -947758         3.96296e+07             124.566
   18.33             32507.5             -935376         3.90679e+07              128.29
   18.35             32780.6             -923495         3.85076e+07             131.854
   18.37             33096.1             -912128         3.79489e+07              135.23
   18.39             33453.5             -901288         3.73923e+07             138.393
   18.41             33852.4             -890984          3.6838e+07              141.32
   18.43             34291.8             -881223         3.62863e+07             143.993
   18.45               34771             -872007         3.57372e+07             146.396
   18.47             35288.7             -863340         3.51909e+07             148.515
   18.49             35843.9             -855220         3.46474e+07             150.342
   18.51             36435.3             -847644         3.41069e+07              151.87
   18.53             37061.4             -840607         3.35694e+07             153.097
   18.55             37720.8             -834103         3.30348e+07              154.02
   18.57               38412             -828121         3.25032e+07             154.644
   18.59             39133.3             -822653         3.19745e+07             154.972
   18.61               39883             -817686         3.14488e+07             155.011
   18.63             40659.6             -813209         3.09261e+07             154.769
   18.65             41461.4             -809206         3.04064e+07             154.256
   18.67             42286.6             -805665         2.98898e+07             153.483
   18.69             43133.5             -802568         2.93763e+07             152.463
   18.71             44000.4             -799901          2.8866e+07             151.208
   18.73             44885.7             -797647         2.83591e+07             149.732
   18.75             45787.7             -795789         2.78558e+07             148.049
   18.77             46704.7             -794310         2.73563e+07             146.174
   18.79               47635             -793194         2.68608e+07             144.121
   18.81             48576.9             -792421         2.63696e+07             141.906
   18.83             49528.7             -791974         2.58831e+07             139.543
   18.85             50488.6             -791834         2.54015e+07             137.047
   18.87             51454.9             -791983         2.49253e+07             134.434
   18.89             52425.7             -792402         2.44548e+07             131.717
   18.91               53399             -793070         2.39905e+07             128.911
   18.93             54372.8             -793966         2.35329e+07             126.031
   18.95             55344.9             -795069         2.30824e+07              123.09
   18.97               56313             -796356         2.26394e+07             120.103
   18.99             57274.7             -797804         2.22043e+07             117.081
   19.01             58227.3             -799387         2.17777e+07             114.039
   19.03             59168.1             -801079         2.13599e+07             110.987
   19.05             60094.1             -802852         2.09514e+07              107.94
   19.07               61002             -804677         2.05525e+07             104.906
   19.09             61888.4             -806521         2.01635e+07             101.898
   19.11             62749.9             -808352         1.97846e+07             98.9244
   19.13             63582.6             -810136         1.94162e+07             95.9957
   19.15             64382.6             -811837         1.90584e+07             93.1204
   19.17             65145.8             -813415         1.87113e+07             90.3063
   19.19             65867.9             -814833         1.83749e+07             87.5607
   19.21             66544.5             -816048         1.80492e+07             84.8901
   19.23             67171.3             -817020         1.77341e+07             82.2999
   19.25             67743.6             -817706         1.74294e+07             79.7951
   19.27             68257.1             -818063         1.71348e+07             77.3795
   19.29             68707.2             -818046         1.68501e+07             75.0563
   19.31             69089.6             -817612         1.65748e+07             72.8278
   19.33             69399.9             -816718         1.63085e+07             70.6953
   19.35             69634.2             -815323         1.60506e+07             68.6594
   19.37             69788.5             -813384         1.58005e+07               66.72
   19.39             69859.3             -810862         1.55576e+07              64.876
   19.41             69843.4             -807721         1.53211e+07             63.1257
   19.43             69737.9             -803925         1.50904e+07             61.4667
   19.45             69540.3             -799443         1.48646e+07             59.8958
   19.47             69248.6             -794246         1.46428e+07             58.4093
   19.49             68861.5             -788310         1.44244e+07             57.0032
   19.51               68378             -781615         1.42085e+07             55.6726
   19.53             67797.7             -774144         1.39941e+07             54.4123
   19.55             67120.7             -765887         1.37806e+07             53.2169
   19.57             66347.8             -756836          1.3567e+07             52.0806
   19.59             65480.6             -746991         1.33527e+07             50.9975
   19.61             64520.8             -736356         1.31368e+07             49.9615
   19.63             63471.1             -724940         1.29186e+07             48.9664
   19.65             62334.7             -712758         1.26977e+07             48.0062
   19.67             61115.2             -699829         1.24732e+07             47.0748
   19.69             59816.9             -686180         1.22448e+07             46.1664
   19.71             58444.5             -671839         1.20121e+07             45.2753
   19.73               57003             -656842         1.17745e+07             44.3962
   19.75             55498.2             -641228         1.15319e+07             43.5241
   19.77             53935.8             -625039         1.12841e+07             42.6542
   19.79             52322.1             -608324         1.10309e+07             41.7825
   19.81             50663.5             -591133         1.07723e+07             40.9051
   19.83             48966.7             -573517         1.05083e+07             40.0187
   19.85             47238.4             -555534         1.02392e+07             39.1206
   19.87             45485.5             -537241         9.96507e+06             38.2085
   19.89             43714.7             -518696         9.68626e+06             37.2807
   19.91             41932.9             -499959         9.40311e+06              36.336
   19.93             40146.6             -481090         9.11607e+06             35.3736
   19.95             38362.5             -462149         8.82561e+06             34.3933
   19.97             36586.7             -443195         8.53229e+06             33.3954
   19.99             34825.3             -424286          8.2367e+06             32.3807
   20.01             33084.1             -405480         7.93945e+06             31.3501
